DATE 2017:067:16:56:08 obsn   0 az 190 el 25 freq_MHz  1420.4000 Tsys 213.599 Tant 41.319 vlsr  -24.86 glat -37.545 glon 15.799 source at_stow
Fstart 1419.397 fstop 1421.403 spacing 0.009375 bw    2.400 fbw    2.000 MHz nfreq 256 nsam 5242880 npoint 214 integ    54 sigma    0.302 bsw 0
Spectrum     49 integration periods
 301.674  300.562  299.990  303.183  300.027  299.064  299.899  303.661  299.812  300.113  299.574  299.466  300.026  299.548  299.181  303.209  302.631  299.125  299.458  298.760  300.015  298.323  299.691  299.756  300.459  299.536  299.067  300.014  304.662  299.913  298.750  299.408  300.394  300.093  298.797  299.145  298.804  300.429  298.767  298.983  300.938  303.375  299.210  298.873  299.219  298.662  298.565  299.137  299.123  298.749  303.450  299.872  299.653  299.800  302.295  298.446  303.749  298.567  299.842  298.778  299.025  299.398  302.823  302.439  299.470  299.113  299.870  300.422  304.353  300.057  304.025  305.482  299.668  299.260  298.882  303.977  298.584  298.297  299.162  298.946  299.011  299.114  298.941  299.189  303.369  299.360  299.077  299.622  301.210  299.293  299.246  299.571  300.005  299.644  299.103  299.428  304.504  300.142  299.139  299.940  298.621  299.530  299.371  302.146  300.090  302.433  298.804  299.236  299.328  301.733  299.117  299.266  299.030  299.811  298.819  299.345  301.795  299.868  306.327  302.302  303.552  304.951  308.042  309.841  311.973  311.415  311.993  307.824  306.080  305.036  305.581  304.349  300.226  301.083  303.972  299.392  299.065  299.391  298.007  303.520  298.573  298.184  298.467  300.334  298.547  298.311  297.995  300.314  300.693  298.939  298.503  297.735  303.096  299.696  298.326  299.216  298.816  298.474  299.399  298.478  303.915  298.680  298.942  299.717  299.032  300.168  297.666  298.384  298.498  300.368  298.486  299.075  299.235  303.284  297.809  297.983  298.480  298.744  297.314  297.607  297.498  299.648  302.567  298.087  297.954  298.152  299.813  297.015  298.133  297.703  300.072  297.688  298.137  297.642  302.883  298.654  299.843  298.436  297.278  298.728  298.411  299.100  298.276  304.016  298.453  298.653  299.184  299.365  297.674  297.817  297.864  300.285  298.593  303.217 
DATE 2017:067:16:57:01 obsn   1 az 230 el 16 freq_MHz  1420.4000 Tsys 213.599 Tant 28.072 vlsr  -41.60 glat -0.205 glon 10.118 source G10.0 
Fstart 1419.397 fstop 1421.403 spacing 0.009375 bw    2.400 fbw    2.000 MHz nfreq 256 nsam 5242880 npoint 214 integ    11 sigma    0.667 bsw 0
Spectrum     10 integration periods
 236.183  234.061  235.952  236.064  234.921  233.524  233.797  233.754  233.738  233.485  233.968  232.777  234.134  233.482  232.839  235.004  234.495  234.056  233.157  234.001  234.426  233.727  234.177  234.044  234.622  233.819  233.152  233.802  235.367  234.195  234.890  233.018  233.867  233.626  231.777  233.903  233.908  234.958  233.627  233.475  233.071  234.904  232.948  234.017  233.138  234.254  234.132  234.920  233.354  234.578  234.777  234.005  234.172  233.826  235.354  234.067  234.840  235.386  236.051  235.464  235.677  234.856  236.131  237.784  234.996  235.737  235.088  236.423  236.972  235.945  234.364  238.206  234.974  235.661  235.782  238.692  235.147  235.109  237.175  234.977  234.251  234.594  235.728  235.215  237.396  234.656  236.093  237.290  236.810  236.519  236.422  236.936  237.899  237.268  236.825  237.880  239.034  238.988  238.164  239.164  241.495  240.031  241.634  245.307  245.494  248.856  249.470  251.959  251.972  256.075  255.045  257.276  260.511  261.042  264.019  266.876  270.519  272.011  277.470  278.702  281.480  286.181  290.546  293.478  293.718  297.537  299.292  298.780  296.400  295.773  293.606  293.264  293.473  290.730  282.055  271.317  265.561  262.486  261.707  264.706  261.089  261.040  260.353  259.546  257.840  254.837  250.437  248.575  245.695  242.174  240.794  238.089  239.077  241.538  234.801  234.103  233.628  233.108  233.143  232.959  234.990  232.079  233.097  232.637  232.810  232.393  232.037  232.987  231.477  232.939  232.103  232.963  232.965  233.814  231.979  232.476  232.398  230.077  232.368  231.652  232.006  231.503  233.005  232.136  231.238  232.498  232.224  231.865  230.880  231.731  232.031  230.789  230.503  231.741  233.819  232.427  232.579  232.051  231.234  230.744  232.143  234.362  232.622  233.968  232.621  231.886  232.450  232.678  231.793  231.494  232.577  232.827  230.914  233.656 
DATE 2017:067:16:57:22 obsn   2 az 230 el 19 freq_MHz  1420.4000 Tsys 213.599 Tant 27.071 vlsr  -41.90 glat -0.205 glon 12.618 source G12.5 
Fstart 1419.397 fstop 1421.403 spacing 0.009375 bw    2.400 fbw    2.000 MHz nfreq 256 nsam 5242880 npoint 214 integ    10 sigma    0.704 bsw 0
Spectrum      9 integration periods
 234.367  232.234  229.707  232.145  230.827  231.471  228.296  230.017  231.613  231.406  230.617  229.157  230.778  230.359  231.014  230.182  230.888  229.704  230.694  230.711  229.567  230.495  231.038  229.846  230.722  230.349  231.347  230.235  231.273  229.976  229.680  229.006  231.028  230.638  230.484  230.226  230.366  229.225  231.137  228.445  229.570  230.770  229.786  229.203  231.331  230.650  229.635  230.462  229.955  231.707  231.319  231.042  231.043  228.918  231.760  231.145  231.956  229.893  230.287  231.678  231.847  232.052  232.156  232.725  231.216  233.581  232.363  232.925  238.714  237.215  234.768  236.249  233.953  235.161  234.005  236.076  233.767  235.469  234.642  234.099  234.663  234.957  234.187  234.928  235.680  236.514  235.851  235.881  236.900  235.668  236.069  235.115  236.230  237.376  237.082  237.022  238.226  238.866  239.194  242.035  241.680  245.823  247.270  247.557  249.336  252.698  252.565  252.193  255.835  257.174  258.793  259.555  261.150  262.105  263.228  264.963  269.326  270.970  274.204  277.444  282.359  286.550  289.297  291.414  294.754  294.500  295.319  292.654  292.605  291.404  291.069  291.045  294.414  289.416  282.237  269.348  262.906  258.750  255.491  256.164  254.576  252.015  252.081  253.006  253.031  252.944  253.830  249.502  247.028  245.060  241.835  239.553  240.321  237.942  233.809  232.243  231.866  230.257  231.092  230.387  233.032  229.900  230.197  229.033  231.018  229.840  228.457  229.000  228.980  230.163  230.476  230.290  229.167  230.009  228.215  228.255  229.275  228.331  227.168  227.729  228.544  228.054  228.891  228.497  228.406  228.324  228.268  228.712  228.596  230.141  229.478  227.932  226.681  226.888  229.309  228.165  228.485  227.695  229.982  228.925  226.747  230.203  228.875  230.555  228.866  230.057  229.178  227.999  228.127  228.854  228.698  229.112  228.466  232.294 
DATE 2017:067:16:57:43 obsn   3 az 231 el 21 freq_MHz  1420.4000 Tsys 213.599 Tant 26.781 vlsr  -42.11 glat -0.203 glon 15.118 source G15.0 
Fstart 1419.397 fstop 1421.403 spacing 0.009375 bw    2.400 fbw    2.000 MHz nfreq 256 nsam 5242880 npoint 214 integ    10 sigma    0.704 bsw 0
Spectrum      9 integration periods
 232.539  231.458  231.561  232.405  230.010  230.529  229.976  232.230  229.965  230.586  231.321  229.410  229.486  229.348  230.691  231.229  231.846  229.907  228.125  228.818  229.693  230.581  230.161  230.309  231.014  229.465  230.993  229.009  233.616  229.153  229.238  230.085  229.324  230.158  229.406  230.575  228.706  231.089  230.023  230.342  230.620  230.861  229.687  229.400  229.788  229.368  229.966  228.931  229.417  229.402  231.782  228.973  229.085  229.257  230.895  231.726  230.291  230.222  231.090  230.514  230.492  231.482  234.168  231.002  231.270  230.955  232.838  233.797  237.526  236.122  243.157  238.320  236.099  236.966  236.874  238.761  236.918  237.257  236.639  236.341  236.147  236.443  235.393  235.009  238.919  237.385  238.222  236.205  239.601  238.807  238.392  239.215  238.833  238.774  240.651  240.923  245.633  244.085  243.709  245.002  246.793  248.614  247.426  250.309  250.715  255.915  253.483  255.737  256.588  257.802  258.855  259.488  259.936  262.124  263.681  263.351  265.800  268.348  274.624  274.211  278.436  282.343  286.584  290.624  292.533  293.943  295.668  290.529  289.770  288.397  289.728  288.769  290.685  290.778  283.715  270.092  261.886  256.308  254.340  254.697  251.649  250.555  250.569  251.409  251.110  251.112  252.567  251.460  251.250  248.245  245.178  243.355  242.395  238.785  232.605  232.717  231.985  230.821  229.664  230.295  231.877  228.635  228.216  228.367  227.759  229.977  228.232  229.140  227.911  229.593  226.810  227.777  226.899  229.977  227.578  227.130  228.704  227.728  226.054  226.830  226.865  227.649  229.902  226.773  226.787  225.959  227.052  225.573  226.186  226.656  228.073  227.107  226.965  227.577  229.719  228.182  226.792  227.522  227.341  227.712  227.646  227.539  227.284  231.133  226.845  227.449  228.232  227.438  227.072  226.879  225.882  228.475  227.253  228.907 
DATE 2017:067:16:58:05 obsn   4 az 232 el 23 freq_MHz  1420.4000 Tsys 213.599 Tant 26.916 vlsr  -42.25 glat -0.202 glon 17.618 source G17.5 
Fstart 1419.397 fstop 1421.403 spacing 0.009375 bw    2.400 fbw    2.000 MHz nfreq 256 nsam 5242880 npoint 214 integ    10 sigma    0.704 bsw 0
Spectrum      9 integration periods
 230.325  229.257  229.314  231.150  227.800  228.186  227.893  232.020  227.459  228.953  230.767  229.094  228.070  227.637  228.508  232.381  231.767  229.136  227.865  226.416  230.383  229.003  229.221  229.027  228.787  227.640  228.464  227.582  232.941  229.198  227.891  227.962  229.309  227.912  227.736  228.800  227.288  229.772  228.654  227.112  227.495  232.133  227.964  228.258  227.219  229.225  228.363  226.743  228.340  227.655  230.832  226.559  227.120  228.059  229.213  228.746  228.748  228.418  229.143  229.620  227.393  228.066  233.048  230.464  229.555  230.520  229.155  231.423  233.177  233.422  234.871  237.938  234.950  236.601  237.108  242.757  238.306  239.086  240.849  240.350  239.014  240.647  240.546  240.235  243.918  241.581  241.761  242.608  243.722  243.695  241.468  241.302  242.405  243.807  243.195  245.167  249.225  244.445  246.460  247.326  246.748  248.478  248.983  249.809  251.372  254.171  253.659  256.177  256.903  260.807  258.416  258.405  260.801  262.065  263.040  263.607  264.236  266.470  272.800  270.981  274.211  276.562  281.834  285.788  288.558  289.112  288.586  285.589  284.741  284.478  284.725  288.940  287.933  291.991  283.975  271.613  259.139  253.127  250.201  251.704  248.495  245.174  245.382  248.129  246.161  245.869  246.600  248.670  247.755  246.445  245.241  244.434  245.270  238.996  235.481  234.070  231.226  230.141  229.195  229.602  231.950  227.219  227.652  226.717  226.248  228.086  228.090  227.277  227.258  228.580  226.865  225.906  225.892  229.498  225.700  227.453  226.950  225.350  224.709  226.108  225.671  227.229  228.485  227.387  225.937  224.917  226.569  225.658  225.424  225.438  226.525  224.567  226.205  227.265  228.995  226.735  225.947  226.837  226.410  225.472  226.388  227.126  226.738  229.578  225.547  227.888  226.271  226.204  225.769  226.891  225.481  227.345  225.684  224.841 
DATE 2017:067:16:58:26 obsn   5 az 232 el 26 freq_MHz  1420.4000 Tsys 213.599 Tant 25.876 vlsr  -42.31 glat -0.200 glon 20.118 source G20.0 
Fstart 1419.397 fstop 1421.403 spacing 0.009375 bw    2.400 fbw    2.000 MHz nfreq 256 nsam 5242880 npoint 214 integ    11 sigma    0.667 bsw 0
Spectrum     10 integration periods
 229.458  229.441  228.897  229.939  228.650  226.777  227.641  229.929  226.792  228.770  228.402  226.195  226.691  225.804  228.234  229.704  229.192  226.959  226.752  228.165  229.194  226.538  227.290  227.913  228.087  228.043  227.373  227.593  231.213  226.799  226.852  228.325  227.178  228.113  227.479  227.794  227.532  228.149  227.436  226.141  227.549  229.684  226.414  228.165  227.590  227.652  226.525  227.615  226.519  226.766  229.224  226.885  227.272  226.046  228.327  227.906  227.435  226.996  227.591  228.118  227.564  227.786  230.887  227.647  227.246  228.157  228.998  229.260  230.919  229.811  234.272  235.467  233.396  235.391  235.199  239.965  240.283  243.353  241.276  243.724  245.943  246.978  248.438  247.321  250.779  249.508  248.779  249.963  250.313  249.762  248.770  247.521  249.193  247.081  248.155  247.299  249.959  248.426  249.422  249.082  250.695  253.176  252.984  255.730  256.712  259.989  258.210  259.128  260.177  262.357  261.897  260.286  261.163  260.761  260.785  263.016  260.342  259.245  263.883  261.351  262.149  263.835  267.403  271.328  275.758  276.853  279.089  277.028  277.499  276.181  279.025  282.198  285.766  285.876  277.850  263.510  253.682  248.788  244.745  246.797  243.757  242.904  241.736  240.030  241.010  241.114  240.051  242.870  243.756  244.344  244.401  245.226  245.893  240.504  238.038  236.330  234.421  231.441  230.614  229.387  230.679  227.627  228.031  226.744  227.304  226.495  225.299  226.273  226.330  226.153  225.741  226.140  225.555  228.480  227.117  226.807  226.926  225.255  225.258  224.280  224.939  225.913  229.110  226.146  225.959  224.605  225.586  225.227  224.491  224.935  225.868  224.937  225.169  224.400  227.308  224.958  226.318  225.318  226.005  226.346  225.248  225.596  226.257  228.209  226.279  226.186  225.415  226.471  224.636  225.088  224.767  226.234  224.876  225.450 
DATE 2017:067:16:58:55 obsn   6 az 234 el 31 freq_MHz  1420.4000 Tsys 213.599 Tant 27.057 vlsr  -42.18 glat -0.195 glon 25.118 source G25.0 
Fstart 1419.397 fstop 1421.403 spacing 0.009375 bw    2.400 fbw    2.000 MHz nfreq 256 nsam 5242880 npoint 214 integ     1 sigma    2.111 bsw 0
Spectrum      1 integration periods
 227.388  227.033  226.747  233.241  226.600  227.330  229.109  229.550  227.464  228.008  232.227  230.693  225.145  228.523  228.952  234.278  231.374  230.438  227.701  229.635  225.654  229.216  227.064  226.260  229.446  230.238  227.154  226.210  228.311  229.054  227.262  230.519  230.353  230.530  224.698  229.141  230.070  231.094  224.890  227.616  225.044  223.842  226.928  231.816  229.205  227.339  227.695  228.509  229.938  229.337  229.672  230.729  228.121  228.659  224.858  228.419  229.517  228.748  227.807  229.648  228.460  226.747  227.565  226.207  228.474  229.206  228.778  226.637  233.557  233.004  225.226  228.672  229.940  230.350  233.492  239.288  235.538  238.829  241.214  239.123  249.012  252.462  249.015  255.692  253.415  257.984  252.890  253.237  255.258  259.727  256.289  256.899  256.578  262.910  256.211  259.605  260.644  257.550  255.583  256.383  256.099  253.899  257.240  256.959  254.660  254.676  252.695  258.554  254.350  256.873  256.711  261.022  262.223  263.872  262.588  258.977  258.688  262.363  264.617  269.040  269.835  273.094  275.689  277.264  282.466  280.596  284.488  281.476  282.154  274.559  275.136  284.710  286.052  280.386  276.801  258.912  243.113  239.292  241.921  244.794  243.391  244.659  244.634  241.949  240.151  239.303  240.964  242.073  245.700  240.506  243.631  249.097  243.345  246.046  245.128  238.884  244.249  237.990  233.895  235.567  234.703  233.167  231.931  229.430  227.911  230.098  228.432  228.379  231.697  229.654  230.075  225.528  230.503  228.538  229.464  224.712  221.903  225.205  226.019  225.721  225.583  229.155  229.220  225.451  229.353  226.093  226.967  225.912  225.241  224.910  226.496  227.706  227.134  227.700  226.135  227.832  226.100  224.562  226.324  228.377  228.852  224.115  230.415  228.826  229.760  230.143  224.561  225.280  227.624  226.606  227.143  225.286  222.309  226.476 
DATE 2017:067:16:59:16 obsn   7 az 235 el 33 freq_MHz  1420.4000 Tsys 213.599 Tant 28.384 vlsr  -41.99 glat -0.192 glon 27.618 source G27.5 
Fstart 1419.397 fstop 1421.403 spacing 0.009375 bw    2.400 fbw    2.000 MHz nfreq 256 nsam 5242880 npoint 214 integ     1 sigma    2.111 bsw 0
Spectrum      1 integration periods
 231.038  231.300  229.845  229.809  227.592  227.958  230.577  227.520  227.170  223.693  231.808  230.701  230.544  230.149  230.959  231.039  226.922  228.753  228.249  227.622  229.312  231.160  229.406  228.926  229.578  229.832  225.999  229.059  226.861  225.199  225.160  227.301  231.458  230.996  230.981  229.040  229.410  232.203  226.219  222.370  224.057  231.489  229.395  227.728  228.932  226.324  229.791  228.686  225.114  225.948  228.291  223.803  229.446  226.725  227.097  227.314  229.796  229.320  226.700  226.375  230.124  227.987  230.249  226.953  228.126  230.509  228.672  229.626  232.517  235.830  235.009  230.215  230.918  231.622  229.372  230.960  237.050  237.296  245.055  240.776  247.031  248.741  251.534  249.608  261.195  257.067  259.833  261.272  257.989  261.312  254.802  257.715  260.905  260.979  263.995  262.628  261.773  260.262  260.705  259.393  257.070  254.346  255.242  255.704  256.236  262.541  260.132  262.043  259.877  265.625  267.268  265.953  266.051  264.698  268.342  260.660  263.347  262.494  268.092  268.672  272.755  276.190  282.387  282.556  288.170  291.782  292.224  289.058  289.412  283.617  277.063  282.374  281.856  281.191  271.464  255.128  244.997  244.884  241.624  242.883  241.020  242.716  243.006  244.954  241.375  245.717  244.172  244.495  242.089  246.642  246.129  247.870  250.106  248.663  250.324  251.038  247.368  241.605  238.128  234.665  234.855  236.470  233.333  235.504  231.225  232.124  224.815  227.929  228.362  227.503  227.071  225.581  225.984  231.372  230.250  229.520  228.451  227.198  225.071  228.032  224.466  224.829  228.383  227.325  227.971  231.029  227.545  226.447  225.132  229.280  228.732  229.616  222.915  225.232  227.253  227.944  226.740  226.352  232.576  225.184  227.946  226.235  229.962  231.300  225.188  226.824  230.875  228.918  227.615  226.058  228.622  225.470  226.485  230.366 
DATE 2017:067:16:59:37 obsn   8 az 235 el 35 freq_MHz  1420.4000 Tsys 213.599 Tant 24.526 vlsr  -41.73 glat -0.188 glon 30.118 source G30.0 
Fstart 1419.397 fstop 1421.403 spacing 0.009375 bw    2.400 fbw    2.000 MHz nfreq 256 nsam 5242880 npoint 214 integ     2 sigma    1.493 bsw 0
Spectrum      2 integration periods
 228.978  224.212  228.898  228.913  228.555  227.651  226.840  228.297  226.542  225.266  226.778  225.690  224.710  227.540  228.323  229.173  228.060  228.230  227.489  227.234  224.784  226.854  225.619  224.213  226.789  224.044  226.139  224.581  228.040  224.783  226.759  225.364  225.004  223.583  225.264  225.134  225.137  229.471  223.802  225.565  227.188  226.180  229.812  227.724  225.890  224.596  224.570  226.334  223.665  227.850  228.029  226.998  226.417  226.546  226.816  226.596  224.582  223.071  226.234  225.172  226.071  227.305  223.187  227.074  223.860  226.744  225.732  226.970  230.394  226.513  231.569  229.057  226.661  227.452  226.402  231.357  229.909  229.811  230.832  237.138  236.853  238.275  241.526  246.249  248.834  244.545  248.253  250.592  249.481  251.973  248.818  251.691  254.305  254.156  253.860  255.218  257.903  249.437  250.060  252.449  249.422  251.296  251.061  256.837  256.503  263.423  263.483  263.989  263.397  268.664  266.936  264.874  266.457  267.114  261.798  263.483  267.846  268.860  271.011  268.077  268.085  271.420  271.041  275.589  274.870  277.876  283.285  286.715  288.414  286.134  279.732  276.533  274.956  269.326  257.557  244.335  238.063  236.395  237.457  236.283  234.814  235.370  236.218  241.203  236.429  234.265  234.892  240.173  237.911  240.100  237.664  239.780  240.748  242.979  242.302  241.249  238.873  236.388  235.125  233.606  237.191  232.258  229.304  231.899  226.263  229.104  227.577  228.389  225.588  228.137  227.110  223.773  223.574  226.057  224.525  222.869  224.364  223.787  222.851  221.071  223.146  225.066  225.654  222.956  224.535  223.663  225.578  225.985  221.650  220.827  225.253  222.640  223.848  222.790  227.380  223.437  224.099  223.944  225.401  225.431  225.213  225.356  225.432  230.176  225.904  224.179  224.959  224.325  224.168  221.236  222.839  224.424  221.518  223.234 
DATE 2017:067:16:59:58 obsn   9 az 236 el 38 freq_MHz  1420.4000 Tsys 213.599 Tant 31.401 vlsr  -41.38 glat -0.184 glon 32.618 source G32.5 
Fstart 1419.397 fstop 1421.403 spacing 0.009375 bw    2.400 fbw    2.000 MHz nfreq 256 nsam 5242880 npoint 214 integ     2 sigma    1.493 bsw 0
Spectrum      2 integration periods
 238.621  237.383  234.969  236.513  238.004  234.469  236.999  236.133  235.977  231.846  233.709  233.806  233.637  233.241  233.496  236.564  236.246  232.145  232.965  234.927  233.962  234.382  236.796  234.695  235.115  232.988  233.830  235.014  232.217  235.731  234.396  234.645  232.181  233.365  235.925  231.823  232.547  235.039  234.895  234.020  234.847  234.761  237.135  234.470  231.643  234.049  233.196  232.780  232.596  237.018  232.881  234.874  233.560  236.796  233.447  233.092  233.649  232.304  234.697  234.517  234.891  233.229  235.838  234.854  234.649  235.386  232.339  231.695  237.173  232.455  237.046  234.172  234.901  232.416  231.586  237.357  235.097  235.617  234.596  236.257  235.216  235.214  242.489  240.555  242.913  244.620  246.343  252.198  251.414  253.900  258.439  257.724  259.606  261.396  260.770  259.437  261.536  260.622  260.214  263.186  265.693  265.126  266.884  272.127  271.818  274.450  272.641  273.063  274.953  272.556  274.890  276.878  277.248  281.293  283.660  282.539  282.319  281.139  283.088  280.413  281.165  280.407  281.180  274.767  274.033  280.588  288.413  287.734  294.834  291.004  290.558  287.947  284.819  271.032  262.608  249.138  243.865  241.140  241.294  241.061  238.776  238.859  241.145  243.722  244.378  244.460  245.259  246.063  246.914  248.903  248.960  248.289  250.085  250.099  246.528  248.793  246.764  244.404  246.853  246.798  246.917  244.235  244.304  240.828  237.598  239.993  237.137  234.278  233.801  235.000  234.119  232.781  230.684  230.663  231.279  231.515  231.855  231.484  231.415  227.422  231.657  229.247  232.770  229.788  231.941  232.565  232.812  228.830  230.227  232.297  232.542  231.127  235.444  232.580  230.440  230.647  234.798  231.875  231.503  232.666  229.995  230.774  229.114  231.103  231.104  231.728  228.923  231.150  231.127  228.001  230.549  229.911  228.576  229.987 
DATE 2017:067:17:00:20 obsn  10 az 237 el 40 freq_MHz  1420.4000 Tsys 213.599 Tant 34.087 vlsr  -40.96 glat -0.180 glon 35.118 source G35.0 
Fstart 1419.397 fstop 1421.403 spacing 0.009375 bw    2.400 fbw    2.000 MHz nfreq 256 nsam 5242880 npoint 214 integ     3 sigma    1.219 bsw 0
Spectrum      3 integration periods
 239.765  235.915  237.470  236.798  236.813  236.033  236.616  235.574  235.607  232.797  237.008  237.363  234.816  233.713  234.123  238.662  235.626  234.408  235.836  236.379  232.729  235.630  232.445  234.369  234.657  237.472  234.367  238.038  234.191  236.081  235.626  235.194  236.589  233.904  233.393  233.856  236.005  234.340  234.841  232.822  236.968  235.132  232.348  237.091  233.763  233.393  235.999  236.874  233.836  235.838  235.734  233.733  236.624  233.961  234.424  235.424  234.862  234.262  234.245  235.350  235.240  235.555  233.515  236.194  236.860  234.483  234.685  241.326  237.779  234.212  224.887  235.337  232.453  233.813  237.010  237.393  235.801  234.292  234.515  234.222  236.834  234.760  235.019  239.058  240.598  243.171  241.418  242.618  248.495  252.607  254.535  256.487  260.671  260.249  260.654  261.093  264.381  266.931  267.974  268.384  272.453  269.826  274.829  275.527  275.081  275.586  274.578  275.876  278.472  274.274  274.861  274.722  279.389  279.795  287.953  289.758  292.325  290.216  291.255  285.958  286.181  284.651  281.370  278.658  280.751  279.541  285.729  287.113  288.075  293.574  292.650  284.402  278.787  267.766  255.128  246.972  245.720  242.819  238.696  240.451  241.894  240.363  241.425  240.888  244.369  245.384  246.794  247.551  249.750  252.901  252.005  251.851  254.863  252.077  248.635  252.195  250.772  247.511  249.277  249.742  247.952  248.981  249.003  245.376  242.243  237.399  236.062  235.049  234.367  231.939  230.690  233.400  233.430  233.702  229.045  232.504  230.704  233.628  232.684  232.736  228.961  231.103  231.791  230.685  232.003  230.097  230.774  230.910  232.296  230.372  231.707  232.867  232.005  231.246  233.272  230.617  230.277  231.900  231.967  231.402  231.878  232.659  233.460  233.259  230.298  233.287  231.660  231.662  232.314  230.252  231.999  231.610  230.685  233.155 
DATE 2017:067:17:00:41 obsn  11 az 238 el 42 freq_MHz  1420.4000 Tsys 213.599 Tant 94.621 vlsr  -40.46 glat -0.176 glon 37.618 source G37.5 
Fstart 1419.397 fstop 1421.403 spacing 0.009375 bw    2.400 fbw    2.000 MHz nfreq 256 nsam 5242880 npoint 214 integ     3 sigma    1.219 bsw 0
Spectrum      3 integration periods
 302.866  299.620  301.111  300.124  300.922  301.420  297.843  297.774  297.919  297.935  297.610  298.716  300.489  299.147  298.456  300.642  300.599  299.448  299.368  299.696  294.542  297.643  298.490  299.347  297.414  300.811  296.412  296.547  299.793  297.734  296.531  297.401  298.620  298.613  297.130  296.117  295.335  296.020  297.632  294.597  297.802  296.064  299.108  299.302  297.190  297.122  295.768  302.599  297.984  297.142  301.770  296.765  295.378  298.296  299.997  299.556  298.610  297.927  296.399  299.979  298.329  300.734  300.616  294.415  295.449  300.950  296.899  300.075  305.156  298.853  291.574  298.436  298.450  296.250  293.991  302.036  298.828  296.507  298.016  298.579  298.659  296.167  294.573  301.456  297.428  300.268  299.866  304.612  304.652  308.453  310.425  313.437  314.078  318.786  324.579  325.436  328.015  332.603  336.575  340.479  343.422  342.824  342.215  343.354  343.213  342.131  340.063  338.508  337.466  339.404  342.294  342.275  345.155  348.010  350.584  356.254  360.785  356.555  353.655  349.792  348.571  344.781  346.661  338.075  340.767  342.147  347.067  346.015  354.213  354.648  353.503  349.046  335.430  323.776  314.228  307.478  304.945  302.943  301.886  306.338  301.986  305.146  303.763  302.098  305.119  303.316  307.086  312.130  311.882  312.948  312.140  309.440  317.275  313.633  309.782  308.732  311.067  312.951  311.951  311.510  308.433  305.519  305.003  304.981  305.953  300.694  296.227  293.219  291.809  294.081  293.552  288.853  291.182  288.666  292.284  291.695  289.761  290.522  289.672  287.230  287.411  290.712  291.319  290.454  287.485  287.933  286.640  287.623  285.945  287.267  286.265  285.714  284.573  286.348  284.110  288.754  286.119  286.417  284.564  287.032  286.693  285.237  282.883  285.144  283.609  284.535  286.021  286.796  282.952  281.659  282.676  285.757  280.856  285.617 
DATE 2017:067:17:01:18 obsn  12 az 241 el 47 freq_MHz  1420.4000 Tsys 213.599 Tant 49.190 vlsr  -39.23 glat -0.166 glon 42.618 source G42.5 
Fstart 1419.397 fstop 1421.403 spacing 0.009375 bw    2.400 fbw    2.000 MHz nfreq 256 nsam 5242880 npoint 214 integ     1 sigma    2.111 bsw 0
Spectrum      1 integration periods
 252.717  254.719  255.636  254.845  255.187  251.253  254.801  253.171  251.175  253.958  250.575  254.896  245.985  250.081  250.737  255.693  247.905  247.999  256.292  250.133  251.291  250.659  253.227  250.390  253.469  252.127  250.219  248.965  252.541  256.189  253.859  250.621  248.758  248.766  249.296  248.330  250.365  247.718  250.195  250.348  247.312  252.905  250.644  247.692  252.621  251.930  250.291  249.205  251.421  246.058  250.167  248.784  247.188  252.848  253.073  252.048  250.417  254.745  249.659  252.367  248.003  252.755  253.162  252.291  257.363  248.590  253.342  254.423  252.287  253.219  265.044  254.927  252.330  251.081  247.953  255.400  256.245  253.149  248.537  246.539  251.027  253.107  257.128  250.279  251.808  254.182  253.466  253.800  253.126  252.975  254.316  255.143  254.863  258.677  261.935  270.275  277.213  283.288  291.630  294.858  305.563  301.956  306.724  302.819  311.509  309.753  307.519  302.842  304.511  302.768  301.321  294.363  290.435  294.868  290.560  293.040  294.956  298.322  303.634  306.469  306.851  310.078  304.926  304.378  299.815  298.513  294.230  301.291  314.391  314.815  305.031  298.093  282.238  272.721  264.002  255.442  252.956  256.472  250.533  256.843  253.633  258.537  255.660  257.761  257.272  259.984  258.036  266.033  261.208  262.361  263.250  262.153  267.107  266.078  269.311  271.048  270.734  268.526  269.366  269.599  267.891  264.551  270.031  259.738  263.817  261.707  258.796  256.307  250.824  254.303  250.098  247.315  249.420  253.029  247.986  251.312  246.917  242.868  246.299  245.382  244.719  250.630  246.441  250.005  247.287  248.280  245.342  243.890  243.369  245.007  246.980  245.897  246.945  246.878  246.751  246.987  246.307  247.768  247.425  251.391  245.324  245.679  244.335  245.193  245.471  248.115  246.297  246.484  244.812  249.867  241.812  252.097  246.932  248.737 
DATE 2017:067:17:01:39 obsn  13 az 242 el 49 freq_MHz  1420.4000 Tsys 213.599 Tant 42.374 vlsr  -38.50 glat -0.160 glon 45.118 source G45.0 
Fstart 1419.397 fstop 1421.403 spacing 0.009375 bw    2.400 fbw    2.000 MHz nfreq 256 nsam 5242880 npoint 214 integ     2 sigma    1.493 bsw 0
Spectrum      2 integration periods
 245.044  248.175  247.121  245.871  246.433  244.001  245.411  243.846  244.158  246.926  245.643  245.625  243.578  244.475  242.575  243.122  245.334  246.913  244.020  240.465  242.391  246.804  241.036  243.067  245.972  245.503  246.283  247.931  241.315  242.804  245.530  243.373  243.901  246.405  245.815  243.306  242.724  242.371  243.329  242.722  242.291  243.245  247.561  242.538  242.430  242.542  243.033  242.416  242.617  242.332  242.659  244.036  243.512  244.945  242.176  246.993  244.910  245.815  244.211  241.013  239.890  244.695  245.230  245.833  241.777  242.903  243.461  245.173  246.394  246.065  254.365  244.158  246.362  244.052  243.230  245.770  242.489  242.587  245.834  242.713  243.123  243.349  243.787  244.339  243.910  241.679  246.699  244.454  243.400  244.215  247.910  248.791  250.852  253.487  257.744  260.302  265.097  270.019  278.314  285.390  288.964  294.458  296.630  300.307  300.527  305.493  299.631  300.134  298.429  293.982  292.874  289.781  285.800  280.351  280.745  278.834  280.624  283.631  286.362  293.190  301.289  301.196  295.690  294.601  295.443  294.463  298.123  300.672  303.759  298.118  291.442  280.227  273.120  262.915  255.547  255.396  249.824  248.332  249.294  247.611  245.577  245.263  245.411  247.428  248.770  249.597  253.437  252.140  254.310  251.923  252.378  254.985  254.735  258.710  257.671  268.054  262.122  258.873  258.613  258.951  259.067  257.317  254.668  255.716  253.702  248.511  243.840  247.056  247.932  245.793  241.106  242.924  244.541  242.799  241.443  242.419  241.292  239.445  237.851  240.352  239.115  238.313  238.634  238.818  241.232  239.964  240.892  236.784  240.086  240.013  235.903  240.381  238.842  238.015  239.623  240.493  240.579  239.717  239.768  236.374  239.383  237.733  241.822  240.432  238.682  238.398  240.140  241.421  236.842  238.141  238.317  240.668  238.422  241.944 
DATE 2017:067:17:02:00 obsn  14 az 243 el 52 freq_MHz  1420.4000 Tsys 213.599 Tant 29.216 vlsr  -37.70 glat -0.155 glon 47.618 source G47.5 
Fstart 1419.397 fstop 1421.403 spacing 0.009375 bw    2.400 fbw    2.000 MHz nfreq 256 nsam 5242880 npoint 214 integ     2 sigma    1.493 bsw 0
Spectrum      2 integration periods
 233.390  231.644  234.134  235.349  233.136  232.711  234.761  233.452  234.238  230.337  230.587  231.954  233.255  233.146  230.863  233.095  234.600  234.749  233.442  231.063  234.735  229.751  231.245  230.943  231.836  230.966  230.228  231.950  234.402  226.990  230.586  234.068  233.346  229.632  232.659  233.225  230.927  232.340  231.420  233.136  230.349  233.112  230.701  233.670  232.436  231.404  232.090  230.497  231.204  230.097  229.417  228.300  231.685  230.656  235.533  230.496  231.958  230.696  232.338  232.208  230.489  231.322  230.670  232.147  235.133  229.744  230.454  233.074  235.552  233.401  229.597  235.697  231.594  232.006  233.530  233.445  233.454  230.286  234.055  229.280  229.750  232.236  234.268  232.550  233.562  231.703  231.856  233.127  233.956  235.561  235.346  232.734  236.129  236.490  239.909  242.125  244.685  247.158  255.521  261.416  262.981  269.711  273.231  274.634  276.428  280.075  279.416  280.409  278.443  279.065  277.338  274.216  271.738  268.562  266.672  266.563  268.284  267.628  273.015  273.081  278.986  278.775  279.489  276.777  285.237  290.061  294.567  295.308  284.992  280.562  270.803  265.721  255.806  249.733  242.770  242.404  236.928  242.403  235.813  238.090  237.045  238.110  234.879  235.968  238.333  236.342  240.842  239.288  242.293  241.416  245.649  243.471  246.303  243.165  246.631  247.049  249.595  245.704  250.768  248.565  248.324  244.952  247.308  241.595  239.678  241.331  237.635  235.910  234.387  237.519  233.082  234.173  235.333  233.495  232.321  231.541  229.165  231.460  233.423  230.736  228.204  231.020  230.990  228.608  226.223  229.741  228.779  222.187  229.109  227.026  228.733  231.752  230.150  228.567  228.896  229.404  227.926  229.097  229.797  230.009  229.226  232.731  231.230  228.545  228.079  230.892  229.659  227.560  229.111  229.713  230.098  227.608  228.907  231.567 
DATE 2017:067:17:02:30 obsn  15 az 245 el 54 freq_MHz  1420.4000 Tsys 213.599 Tant 31.346 vlsr  -36.82 glat -0.149 glon 50.118 source G50.0 
Fstart 1419.397 fstop 1421.403 spacing 0.009375 bw    2.400 fbw    2.000 MHz nfreq 256 nsam 5242880 npoint 214 integ     9 sigma    0.746 bsw 0
Spectrum      8 integration periods
 236.704  234.596  236.838  238.116  236.877  236.253  237.496  236.540  237.095  237.051  234.444  235.451  234.612  234.692  236.395  236.407  236.925  235.086  234.401  236.489  235.685  235.744  234.932  234.925  234.631  236.180  234.741  235.496  236.891  235.692  235.606  236.751  235.388  235.101  236.098  235.507  236.142  236.791  235.824  234.612  236.662  237.925  233.739  234.566  233.769  234.301  233.446  235.099  234.961  234.285  236.005  234.190  233.802  234.654  237.720  235.000  235.384  236.381  234.202  233.533  234.563  235.196  236.482  235.536  234.245  234.125  235.017  234.643  241.063  234.290  236.391  236.180  235.132  233.462  232.774  234.440  234.425  234.909  235.619  234.677  233.784  235.065  237.384  234.680  235.217  236.197  236.402  234.622  235.705  235.985  235.964  235.973  237.477  235.609  236.421  238.601  242.134  243.480  248.301  251.955  256.255  258.152  262.857  263.809  268.298  274.079  274.507  275.488  275.960  278.653  276.695  277.317  273.737  276.100  274.881  276.392  272.210  273.510  280.387  279.495  282.507  283.803  281.299  282.588  288.460  293.562  294.220  290.571  285.300  279.166  270.379  264.904  258.545  254.074  250.353  247.991  245.298  244.027  239.917  241.750  239.200  238.543  239.075  239.192  239.181  240.251  240.971  240.175  243.373  242.773  244.633  245.697  247.584  246.964  246.723  249.143  250.931  251.877  251.741  252.214  253.669  251.316  249.181  246.266  244.083  243.540  240.594  240.347  238.707  237.957  237.761  237.536  236.304  236.342  234.393  235.665  234.339  234.881  232.818  232.743  232.310  231.782  232.633  232.036  231.118  231.453  232.524  232.850  232.300  232.888  230.598  232.130  232.030  231.754  233.295  232.918  232.331  230.679  232.581  231.498  232.067  232.018  231.872  233.829  231.666  233.304  231.102  231.846  230.983  231.177  232.174  230.162  230.115  231.169 
DATE 2017:067:17:02:51 obsn  16 az 247 el 56 freq_MHz  1420.4000 Tsys 213.599 Tant 25.518 vlsr  -35.88 glat -0.142 glon 52.618 source G52.5 
Fstart 1419.397 fstop 1421.403 spacing 0.009375 bw    2.400 fbw    2.000 MHz nfreq 256 nsam 5242880 npoint 214 integ    10 sigma    0.704 bsw 0
Spectrum      9 integration periods
 232.764  232.532  231.750  233.043  231.742  231.114  232.717  232.930  230.951  230.914  231.268  231.994  230.325  230.188  231.318  231.962  231.102  230.222  230.945  230.991  232.030  231.052  230.925  230.384  230.425  230.031  229.093  231.358  233.061  232.004  232.804  230.540  229.943  231.562  229.663  230.047  228.454  230.509  229.958  229.928  229.298  230.155  231.000  228.812  229.427  229.305  229.123  230.133  230.708  230.595  231.508  230.375  229.915  228.855  230.962  229.548  229.417  230.041  230.740  230.297  229.267  228.623  230.276  230.390  228.507  230.737  229.938  231.004  234.516  231.268  224.804  229.567  229.675  228.883  228.981  230.004  228.802  227.259  228.595  230.011  228.167  229.219  228.793  230.547  229.796  229.680  229.852  229.419  229.827  229.764  230.358  230.118  231.701  230.963  231.268  231.122  233.276  234.225  235.047  236.877  237.435  239.878  242.830  245.705  248.311  252.747  256.511  259.530  263.016  266.385  268.084  270.338  272.873  272.894  275.433  274.195  275.448  276.894  279.937  281.629  284.087  283.498  283.419  285.014  291.104  292.470  286.988  280.574  273.657  268.102  261.511  256.983  253.584  249.936  248.374  244.970  243.484  241.331  240.266  238.779  237.314  236.404  233.145  233.886  234.062  232.762  232.851  234.362  233.951  235.545  236.345  238.424  239.362  240.942  241.700  244.568  244.821  245.758  246.339  247.146  247.364  247.534  245.624  245.900  243.267  241.561  236.282  236.219  236.548  235.884  233.525  232.977  230.287  230.527  230.698  230.337  228.838  228.305  228.130  227.817  228.272  226.783  228.193  228.490  226.225  226.881  227.383  228.283  226.219  225.795  225.648  225.901  226.300  227.365  227.357  227.063  227.339  226.567  225.810  227.091  227.412  227.082  227.620  227.635  225.837  226.260  228.724  227.568  226.506  225.770  225.273  225.156  226.006  228.686 
DATE 2017:067:17:03:20 obsn  17 az 251 el 60 freq_MHz  1420.4000 Tsys 213.599 Tant 21.427 vlsr  -33.79 glat -0.129 glon 57.618 source G57.5 
Fstart 1419.397 fstop 1421.403 spacing 0.009375 bw    2.400 fbw    2.000 MHz nfreq 256 nsam 5242880 npoint 214 integ     1 sigma    2.111 bsw 0
Spectrum      1 integration periods
 226.618  228.699  229.286  226.076  227.059  225.987  228.166  229.098  225.618  226.950  225.891  229.496  226.893  230.102  224.766  226.150  226.135  225.979  227.476  228.822  226.518  227.472  226.480  224.377  227.104  224.476  228.002  231.258  228.076  227.755  226.883  225.652  225.187  228.138  227.809  221.413  227.944  224.473  225.316  226.662  222.950  222.707  222.670  225.763  228.454  224.160  225.023  226.797  226.684  225.751  227.604  222.945  223.082  222.777  229.138  231.459  225.897  227.536  227.427  224.635  225.201  230.222  226.073  228.253  224.961  224.583  223.278  229.889  228.283  230.085  227.447  228.408  225.597  222.617  225.606  227.282  226.872  229.859  223.402  227.828  225.587  225.841  227.314  228.649  227.968  228.908  227.164  228.207  227.163  226.781  226.469  227.321  226.358  224.577  226.983  225.720  227.672  226.457  228.375  228.733  230.143  229.757  223.817  227.835  231.399  231.701  234.947  235.904  243.450  244.613  245.443  256.280  258.422  262.852  269.479  277.968  279.266  282.276  286.594  288.131  291.710  298.717  301.223  301.240  300.259  297.458  289.184  276.609  269.118  263.455  254.271  254.275  249.143  247.597  251.128  247.156  237.501  241.998  240.273  236.653  233.518  232.295  229.790  231.361  233.255  228.292  229.888  227.110  227.404  226.134  229.752  229.272  231.313  234.097  233.085  238.783  236.783  239.902  243.068  244.888  241.452  242.694  248.155  247.872  244.795  240.533  240.634  237.984  233.383  233.918  235.664  231.362  228.760  230.454  225.505  229.525  227.389  223.439  222.900  225.348  227.926  225.835  225.738  227.449  227.013  223.399  220.567  228.403  224.833  223.318  225.442  218.516  223.509  222.386  225.143  224.384  220.254  218.990  223.603  224.288  221.658  221.812  225.075  228.703  226.807  227.881  224.335  225.958  225.288  222.017  221.147  224.525  224.856  226.374 
DATE 2017:067:17:03:41 obsn  18 az 254 el 63 freq_MHz  1420.4000 Tsys 213.599 Tant 20.724 vlsr  -32.65 glat -0.122 glon 60.118 source G60.0 
Fstart 1419.397 fstop 1421.403 spacing 0.009375 bw    2.400 fbw    2.000 MHz nfreq 256 nsam 5242880 npoint 214 integ     1 sigma    2.111 bsw 0
Spectrum      1 integration periods
 224.466  228.484  229.474  229.860  227.793  233.383  223.738  226.242  224.113  224.755  224.279  226.453  225.945  226.134  224.486  226.529  224.932  224.897  225.548  226.568  225.573  222.712  226.856  223.763  226.631  226.472  223.958  229.033  228.958  221.032  227.856  225.854  225.421  224.337  227.267  226.099  225.644  222.286  222.202  223.300  225.150  226.490  226.005  227.401  225.849  223.180  224.962  224.583  228.118  228.431  225.959  228.147  225.266  223.209  226.811  223.973  231.503  227.686  229.491  226.587  225.395  226.256  227.100  225.153  224.582  225.769  228.896  223.618  227.885  227.514  224.463  227.033  226.701  226.515  228.037  223.854  227.460  226.112  224.921  229.060  227.132  228.677  224.054  224.905  229.494  225.203  224.722  224.966  224.628  224.837  224.664  225.233  227.094  225.497  227.235  224.976  227.127  230.588  228.396  228.784  224.000  225.013  225.704  229.033  229.076  231.555  228.970  235.051  234.246  237.321  241.721  242.735  248.736  254.293  256.324  267.269  272.933  275.516  284.859  292.168  301.442  304.578  308.062  316.501  308.493  301.196  286.226  276.881  267.514  260.483  252.066  249.711  250.917  245.995  247.163  242.799  237.903  237.985  235.846  235.774  233.164  237.768  233.271  225.265  230.140  227.878  229.677  227.189  227.639  232.845  228.808  231.687  231.422  230.547  231.866  242.730  236.964  238.867  247.097  245.529  243.915  241.483  248.400  240.021  245.053  240.509  239.958  233.893  236.192  235.273  231.646  231.823  228.117  229.270  227.371  222.294  227.478  226.985  224.290  223.909  224.917  224.502  226.034  221.137  224.936  227.110  225.443  219.243  226.578  224.457  224.834  226.311  222.047  227.871  224.285  224.277  224.674  221.445  223.400  224.931  223.727  223.151  223.934  223.978  222.939  227.668  221.618  225.977  221.872  223.199  224.961  223.588  225.608  225.496 
DATE 2017:067:17:04:02 obsn  19 az 257 el 65 freq_MHz  1420.4000 Tsys 213.599 Tant 26.545 vlsr  -31.44 glat -0.114 glon 62.618 source G62.5 
Fstart 1419.397 fstop 1421.403 spacing 0.009375 bw    2.400 fbw    2.000 MHz nfreq 256 nsam 5242880 npoint 214 integ     2 sigma    1.493 bsw 0
Spectrum      2 integration periods
 238.329  235.428  239.008  238.670  236.879  234.626  240.054  237.374  234.483  238.426  233.888  235.406  236.985  235.818  235.093  238.382  239.003  235.564  234.244  239.446  238.447  235.439  235.580  238.078  236.208  236.401  233.656  238.418  235.604  236.245  236.290  234.658  234.926  233.539  234.355  234.453  236.539  238.574  233.169  236.602  234.810  238.714  232.843  235.678  233.036  233.649  234.212  237.584  234.074  236.797  236.819  234.269  232.691  234.760  234.407  235.029  235.163  235.630  239.402  234.918  233.927  235.596  234.384  236.496  236.180  236.224  235.553  233.260  238.563  233.515  244.166  237.344  234.183  232.053  234.150  235.048  234.259  233.766  233.740  232.627  230.715  235.786  235.337  234.465  230.883  233.351  234.453  233.233  237.711  233.464  235.389  231.455  234.404  237.584  234.560  233.177  234.248  236.854  234.712  235.227  237.287  234.710  234.190  234.749  234.241  237.802  236.473  239.261  238.074  239.250  242.607  244.892  246.420  251.311  260.109  263.203  269.982  279.401  288.078  295.275  310.031  314.531  326.230  326.303  320.393  309.136  302.673  289.438  278.888  267.292  264.084  259.303  257.257  251.298  253.878  252.190  246.528  244.228  246.362  242.089  241.790  242.636  237.061  240.513  236.936  237.010  235.740  236.230  236.438  235.404  236.598  237.992  243.196  244.488  246.277  246.772  244.656  247.037  249.288  252.333  248.076  255.355  253.454  254.066  254.738  248.900  247.988  245.238  241.681  240.523  236.433  236.653  234.611  234.710  234.866  233.337  236.360  235.020  229.680  233.807  232.665  232.019  232.722  230.022  230.464  230.564  228.118  233.419  232.015  230.431  232.379  231.240  232.277  229.304  231.429  230.737  234.902  233.635  231.496  231.273  230.857  228.414  232.201  232.484  232.772  231.565  230.990  229.686  229.725  231.572  228.751  230.370  228.516  229.621 
DATE 2017:067:17:04:23 obsn  20 az 260 el 67 freq_MHz  1420.4000 Tsys 213.599 Tant 25.913 vlsr  -30.18 glat -0.107 glon 65.118 source G65.0 
Fstart 1419.397 fstop 1421.403 spacing 0.009375 bw    2.400 fbw    2.000 MHz nfreq 256 nsam 5242880 npoint 214 integ     3 sigma    1.219 bsw 0
Spectrum      3 integration periods
 231.899  228.609  231.017  230.689  230.512  229.609  226.736  230.598  227.644  227.223  227.725  228.678  229.525  228.427  230.373  228.834  228.454  230.041  229.241  229.278  229.666  226.751  228.156  226.616  225.835  227.403  229.161  229.102  229.219  227.929  228.596  228.650  227.858  228.112  225.272  227.507  228.007  228.745  229.345  229.986  227.120  227.661  228.312  228.245  227.848  228.386  228.020  228.605  226.980  228.322  226.525  229.493  227.269  225.757  226.449  226.666  227.459  225.735  229.139  227.077  227.648  228.683  226.452  231.053  228.611  227.016  226.461  228.189  233.182  231.124  225.493  228.290  227.728  228.582  224.941  225.350  224.992  226.503  225.364  227.322  226.048  225.892  227.656  228.062  225.519  227.264  228.168  226.276  228.501  227.476  227.552  227.497  227.121  226.058  225.461  228.790  229.627  228.900  229.284  227.532  226.145  226.961  230.105  229.537  227.547  229.574  228.744  229.335  230.083  230.202  230.419  233.479  234.933  238.589  242.795  250.046  254.851  265.402  276.237  286.790  302.407  311.015  313.333  316.540  311.483  299.084  292.347  277.252  267.474  258.133  254.834  251.652  246.568  244.383  243.147  243.510  239.542  242.291  240.287  240.918  237.428  234.805  234.728  232.422  233.573  231.342  229.644  227.424  231.557  232.540  229.989  232.303  234.039  235.489  238.302  235.471  238.105  241.900  242.745  242.581  243.394  243.686  245.099  242.381  243.449  242.163  236.978  235.584  234.123  231.618  232.200  230.139  228.925  228.239  228.858  226.962  227.125  225.994  226.039  226.669  226.472  225.565  227.096  224.462  225.447  226.836  223.692  224.807  223.583  223.177  227.445  223.872  225.739  222.271  224.155  226.477  223.937  225.467  224.453  225.158  224.323  225.629  225.528  223.770  226.461  225.808  225.930  223.088  224.837  223.065  225.087  226.359  223.823  226.547 
DATE 2017:067:17:04:45 obsn  21 az 264 el 69 freq_MHz  1420.4000 Tsys 213.599 Tant 16.754 vlsr  -28.85 glat -0.099 glon 67.618 source G67.5 
Fstart 1419.397 fstop 1421.403 spacing 0.009375 bw    2.400 fbw    2.000 MHz nfreq 256 nsam 5242880 npoint 214 integ     3 sigma    1.219 bsw 0
Spectrum      3 integration periods
 225.442  225.501  224.999  225.196  225.116  225.066  225.076  224.847  224.833  221.795  223.775  222.566  223.638  224.670  222.396  224.806  225.099  223.003  221.422  224.997  223.245  223.128  223.590  221.515  224.059  223.891  225.184  224.241  226.573  223.001  223.531  222.626  224.162  221.852  223.592  223.251  222.998  220.572  220.365  223.661  222.956  223.390  223.512  221.872  221.684  219.743  222.564  223.703  222.829  220.300  222.919  222.164  223.037  224.513  225.743  221.185  221.545  222.333  223.191  222.963  223.055  223.511  224.011  224.944  223.439  220.851  221.740  224.013  228.306  225.732  231.907  228.010  224.291  222.928  220.420  224.446  222.595  222.931  222.887  223.788  222.015  223.347  223.603  222.052  224.094  221.977  222.986  222.883  221.836  223.400  223.304  222.226  225.059  223.484  222.697  223.681  223.835  221.355  223.174  221.019  225.059  222.053  222.931  223.313  224.247  224.148  225.235  222.185  223.607  225.501  225.411  227.618  231.033  234.321  236.420  241.379  248.531  257.561  272.492  283.916  294.772  303.360  310.858  307.878  304.999  295.741  281.737  275.387  260.895  254.264  247.014  242.009  239.297  241.204  239.126  235.970  234.595  237.596  235.765  237.733  232.258  233.061  231.307  229.221  227.532  228.476  225.718  227.622  228.552  226.016  227.605  227.403  225.522  228.820  230.732  232.025  232.816  232.271  234.455  235.951  236.362  236.689  237.990  237.335  234.523  234.118  230.166  230.742  227.140  228.517  224.194  225.962  222.874  221.638  223.800  224.832  221.836  219.622  221.186  223.175  221.562  219.548  221.973  221.666  221.116  222.494  222.752  221.798  217.914  220.624  222.793  219.724  220.930  220.286  219.931  220.969  223.076  220.650  221.204  220.785  222.230  218.192  220.546  222.880  221.821  225.396  222.605  220.354  218.563  219.904  220.818  219.596  220.044  222.862 
DATE 2017:067:17:05:06 obsn  22 az 269 el 70 freq_MHz  1420.4000 Tsys 213.599 Tant 15.872 vlsr  -27.48 glat -0.091 glon 70.118 source G70.0 
Fstart 1419.397 fstop 1421.403 spacing 0.009375 bw    2.400 fbw    2.000 MHz nfreq 256 nsam 5242880 npoint 214 integ     4 sigma    1.055 bsw 0
Spectrum      4 integration periods
 224.733  224.155  224.156  224.857  223.981  221.653  225.032  225.162  222.257  223.853  225.179  224.988  222.448  224.081  224.534  223.483  225.746  224.241  224.067  223.231  222.797  223.213  224.349  222.843  222.659  224.907  225.698  224.241  223.424  224.276  222.755  221.804  222.873  223.916  223.276  222.713  223.365  222.240  220.360  222.986  221.712  223.105  220.414  221.639  222.931  222.739  221.569  221.965  221.952  221.813  221.705  221.444  220.788  220.400  220.881  223.060  223.043  222.305  221.791  220.838  220.979  222.384  221.946  221.548  220.569  221.525  223.056  221.567  228.358  225.628  228.899  224.180  223.901  224.561  223.341  220.993  221.780  221.471  221.291  223.367  221.640  222.031  221.571  222.292  223.828  222.506  222.162  222.495  221.392  221.915  221.113  223.957  222.462  222.133  221.406  222.673  223.275  220.510  221.651  222.396  221.614  222.160  221.629  222.216  221.341  222.694  222.601  224.810  223.558  225.106  224.911  227.220  228.140  230.829  235.106  240.535  250.009  259.433  274.339  288.717  299.449  305.834  311.190  309.056  303.641  296.267  286.959  273.065  265.473  254.458  249.933  244.222  240.660  238.584  240.072  238.078  237.521  237.408  238.856  239.156  236.469  235.344  233.133  232.005  230.315  227.988  228.587  228.311  227.881  225.325  226.604  227.304  228.513  230.628  232.952  232.787  233.488  235.170  234.376  236.422  235.792  235.815  237.484  235.812  234.109  233.519  231.997  229.864  228.810  226.445  225.560  225.653  223.029  222.338  222.596  222.339  221.052  221.517  221.668  223.921  223.736  220.216  219.393  219.668  219.402  223.094  223.492  220.366  220.137  219.038  221.281  219.249  222.508  220.123  223.237  221.254  220.933  219.478  221.546  222.130  220.389  221.268  219.625  221.291  221.658  223.851  221.705  221.318  220.709  219.330  220.047  221.019  221.709  222.530 
DATE 2017:067:17:05:27 obsn  23 az 274 el 72 freq_MHz  1420.4000 Tsys 213.599 Tant 16.945 vlsr  -26.05 glat -0.083 glon 72.618 source G72.5 
Fstart 1419.397 fstop 1421.403 spacing 0.009375 bw    2.400 fbw    2.000 MHz nfreq 256 nsam 5242880 npoint 214 integ     4 sigma    1.055 bsw 0
Spectrum      4 integration periods
 227.215  227.784  228.631  228.682  225.259  225.576  226.162  227.167  226.977  227.251  225.544  224.864  227.019  226.181  225.587  226.586  226.214  224.946  225.336  225.382  228.400  227.279  225.348  228.829  226.561  226.691  226.594  228.572  227.542  226.667  226.161  226.748  226.194  227.459  228.328  226.571  226.136  226.382  228.339  226.073  227.497  226.768  226.787  223.575  225.325  227.245  227.419  224.493  226.648  224.291  226.224  224.486  226.747  226.157  225.917  222.873  225.529  226.025  226.157  226.299  226.787  226.594  226.046  226.981  224.120  226.997  226.760  226.959  231.116  229.519  226.764  229.386  227.735  226.859  223.894  227.469  227.521  227.596  225.036  225.879  225.206  225.560  226.018  226.968  225.978  226.872  227.609  225.608  226.694  226.537  225.890  225.384  226.002  227.061  227.066  226.339  224.297  225.462  225.508  225.250  225.629  226.003  226.017  226.541  224.115  225.235  226.553  226.551  228.952  227.935  230.801  228.717  231.407  235.689  242.302  245.995  258.092  267.813  281.677  291.312  302.612  305.768  301.673  303.203  298.240  290.096  283.750  276.899  268.277  258.147  249.947  247.573  243.676  240.275  239.415  239.464  238.693  238.348  239.819  239.194  242.529  239.122  236.294  232.977  232.285  233.425  232.056  232.328  231.492  230.458  231.014  229.545  231.527  233.080  233.945  234.971  235.865  236.828  236.525  236.989  238.830  238.262  236.261  234.120  235.836  232.151  232.455  229.967  230.565  229.057  229.330  225.077  225.690  227.123  223.342  225.833  225.622  225.249  223.816  225.961  224.738  222.387  224.316  225.466  225.810  224.977  222.683  225.254  223.955  222.322  224.214  224.246  223.968  225.539  224.234  222.992  223.246  223.105  223.444  223.832  225.967  223.750  224.549  226.293  226.023  224.784  226.640  222.503  222.219  222.386  222.576  222.927  223.280  227.867 
DATE 2017:067:17:05:51 obsn  24 az 281 el 74 freq_MHz  1420.4000 Tsys 213.599 Tant 16.191 vlsr  -24.57 glat -0.074 glon 75.118 source G75.0 
Fstart 1419.397 fstop 1421.403 spacing 0.009375 bw    2.400 fbw    2.000 MHz nfreq 256 nsam 5242880 npoint 214 integ     5 sigma    0.944 bsw 0
Spectrum      5 integration periods
 225.622  226.366  224.493  226.053  225.010  225.147  224.142  225.619  223.134  223.560  224.202  223.013  223.207  223.463  223.722  224.178  226.290  224.061  223.560  223.253  224.054  221.926  223.458  224.864  224.287  224.425  225.264  223.378  225.637  223.405  224.237  224.116  222.874  224.119  225.271  222.661  222.442  223.856  225.432  225.194  222.952  223.869  224.109  224.406  224.051  224.179  223.115  223.477  224.318  223.576  223.570  224.118  225.185  223.138  224.128  225.017  223.302  223.585  223.624  223.666  224.832  223.636  224.583  226.331  224.819  224.312  224.818  225.867  232.165  226.810  230.095  227.555  224.627  225.898  222.851  222.518  224.929  223.960  224.208  222.051  223.214  223.892  223.135  224.566  224.092  223.628  224.457  223.979  222.994  225.031  224.181  224.766  223.572  224.117  224.114  223.802  226.606  225.538  225.848  225.581  223.832  224.992  223.867  225.125  226.497  225.579  225.088  227.394  225.570  227.124  227.914  229.248  232.699  237.168  242.457  248.452  256.150  268.573  279.739  287.048  292.946  293.005  292.832  286.571  284.609  277.764  272.078  264.803  261.986  251.813  245.305  241.471  239.193  236.159  234.331  233.877  232.953  234.533  234.720  237.332  234.764  233.306  232.141  233.675  231.210  232.349  231.230  230.865  229.596  226.946  229.533  231.015  228.149  230.885  231.116  231.482  232.635  234.587  233.899  231.829  233.045  232.513  232.037  231.550  230.579  229.431  230.859  227.254  227.759  225.611  226.448  225.559  225.458  223.989  223.314  223.724  221.459  224.683  221.330  221.531  223.218  223.188  223.390  221.752  222.020  222.829  222.002  223.313  222.418  222.474  222.148  224.059  222.566  221.562  222.078  222.638  224.248  223.594  223.479  223.979  223.239  222.730  222.039  223.722  224.541  226.423  225.227  221.936  222.232  223.035  222.137  220.941  221.579  228.350 
DATE 2017:067:17:06:15 obsn  25 az 289 el 75 freq_MHz  1420.4000 Tsys 213.599 Tant 18.726 vlsr  -23.04 glat -0.066 glon 77.618 source G77.5 
Fstart 1419.397 fstop 1421.403 spacing 0.009375 bw    2.400 fbw    2.000 MHz nfreq 256 nsam 5242880 npoint 214 integ     4 sigma    1.055 bsw 0
Spectrum      4 integration periods
 230.793  229.769  229.401  228.197  227.493  227.369  227.632  227.045  228.279  227.086  226.613  226.924  226.804  228.112  227.506  228.368  228.666  229.401  228.609  226.616  227.093  227.539  227.042  226.354  227.471  228.642  227.504  226.063  227.938  227.806  226.483  227.935  228.697  227.333  228.578  227.146  226.836  226.307  226.451  226.106  229.055  228.151  226.539  226.373  226.558  228.109  225.604  226.949  227.025  225.840  226.990  226.784  226.270  227.735  226.223  229.089  226.518  227.656  227.718  226.238  226.734  226.572  228.497  229.127  225.484  227.505  226.440  229.178  241.339  231.951  229.885  229.627  227.393  226.993  226.602  227.705  229.258  225.904  227.049  226.401  227.257  227.007  225.151  226.340  225.602  226.573  225.941  226.735  225.671  228.222  227.230  225.822  229.242  227.865  228.109  227.066  227.018  226.913  226.476  226.928  227.940  227.557  227.281  227.182  227.611  225.737  226.412  229.681  229.295  230.267  230.726  231.650  235.832  240.108  242.934  253.616  260.229  272.449  284.091  290.383  292.632  290.029  285.057  281.851  277.557  273.317  268.831  262.543  257.054  253.599  249.081  243.063  242.131  240.108  238.656  236.082  235.268  235.273  235.389  233.697  235.681  234.688  233.757  233.737  233.749  233.338  232.044  231.927  234.609  231.693  229.775  231.742  230.474  232.728  233.310  234.321  234.303  234.865  233.609  234.104  235.502  231.502  231.604  231.948  232.406  229.667  231.291  225.973  228.017  227.473  226.191  228.126  227.410  228.474  225.960  226.514  225.595  225.207  225.503  225.793  226.838  226.488  226.093  224.544  223.542  223.974  226.110  228.217  224.870  224.862  225.370  223.920  224.695  224.367  225.714  225.356  226.387  226.179  224.086  226.878  226.051  225.019  226.156  227.750  225.483  226.326  226.412  224.527  225.237  224.750  222.838  225.400  226.609  235.244 
DATE 2017:067:17:06:39 obsn  26 az 298 el 76 freq_MHz  1420.4000 Tsys 213.599 Tant 20.606 vlsr  -21.47 glat -0.057 glon 80.118 source G80.0 
Fstart 1419.397 fstop 1421.403 spacing 0.009375 bw    2.400 fbw    2.000 MHz nfreq 256 nsam 5242880 npoint 214 integ     4 sigma    1.055 bsw 0
Spectrum      4 integration periods
 231.583  231.857  230.967  231.729  230.163  227.691  228.804  229.185  231.323  229.138  227.827  228.765  228.958  228.669  229.267  230.897  231.522  228.736  228.551  228.794  228.924  229.509  229.611  230.222  229.679  229.181  228.676  230.054  231.191  228.196  228.336  228.083  228.294  228.217  228.683  229.607  229.892  229.950  228.569  226.679  227.430  227.423  227.921  230.101  227.612  227.893  227.636  228.168  229.613  227.407  227.324  227.182  227.271  229.174  230.089  229.558  226.465  229.546  229.221  229.726  229.219  226.687  229.321  230.478  227.852  226.115  227.582  228.841  238.886  230.079  230.638  234.830  229.025  228.220  227.713  228.108  227.027  227.184  227.169  226.880  227.050  226.925  226.093  227.238  229.205  227.337  228.717  229.230  229.387  230.609  229.019  226.765  228.927  227.903  227.631  227.686  230.102  229.133  228.740  227.545  228.526  228.767  229.766  227.916  228.695  229.257  230.373  230.799  227.338  231.725  231.535  233.897  236.556  242.709  248.398  253.512  261.002  274.310  285.578  291.225  291.941  288.058  284.013  274.852  269.733  263.405  261.834  257.478  254.906  253.396  249.317  244.443  242.509  239.881  237.711  236.802  234.546  234.793  234.879  235.154  233.150  235.557  234.759  235.339  233.326  235.610  233.385  235.662  234.449  229.897  232.159  230.933  232.521  233.785  231.296  231.617  232.683  232.611  235.098  234.568  235.545  234.207  232.313  232.273  232.155  230.996  230.705  229.310  228.219  228.154  226.958  227.088  227.218  227.699  226.752  225.371  225.051  227.104  225.608  226.688  227.937  226.107  225.822  226.301  225.932  226.792  224.947  223.967  224.127  226.879  227.017  226.357  226.541  224.866  226.763  223.656  225.708  224.648  225.986  224.495  225.938  225.885  225.789  227.331  226.739  227.044  226.190  226.679  225.090  227.256  224.303  223.638  225.158  234.272 
DATE 2017:067:17:07:11 obsn  27 az 308 el 76 freq_MHz  1420.4000 Tsys 213.599 Tant 24.426 vlsr  -19.86 glat -0.049 glon 82.618 source G82.5 
Fstart 1419.397 fstop 1421.403 spacing 0.009375 bw    2.400 fbw    2.000 MHz nfreq 256 nsam 5242880 npoint 214 integ     3 sigma    1.219 bsw 0
Spectrum      3 integration periods
 233.654  236.115  231.266  234.462  233.960  232.859  234.237  231.421  231.843  235.662  231.775  232.628  232.710  231.843  233.562  232.159  232.260  231.043  232.624  230.726  232.458  232.319  231.638  232.950  232.731  233.397  233.042  230.978  233.982  234.664  234.301  230.367  231.698  231.338  233.581  229.789  231.395  230.664  231.773  229.922  231.778  232.182  229.410  230.154  230.312  230.831  233.570  230.698  230.599  232.859  232.348  232.914  230.651  232.387  232.598  229.732  229.002  232.847  230.759  232.247  232.034  232.163  229.423  234.101  228.581  230.224  231.552  230.569  243.441  232.255  234.793  238.027  230.367  231.372  229.458  232.376  230.836  228.472  228.307  231.317  228.837  229.985  228.556  229.172  227.432  231.940  230.849  229.940  230.445  230.042  230.470  229.604  232.170  231.720  232.655  230.595  230.365  230.213  231.973  226.918  231.857  233.483  229.690  230.848  231.982  233.484  230.215  231.238  230.859  234.010  237.428  236.003  242.720  245.333  251.260  258.643  268.123  280.757  289.702  294.215  294.811  288.379  280.826  275.099  271.020  267.115  261.462  261.434  260.507  257.098  251.702  249.338  247.958  246.327  242.868  241.218  239.830  240.132  240.534  237.731  236.272  236.564  237.916  237.417  237.656  234.399  237.567  235.697  233.256  233.000  233.785  231.298  232.591  233.221  234.476  235.460  235.703  237.891  236.682  236.789  235.138  234.160  234.286  234.996  233.713  233.733  233.613  230.722  233.538  232.105  231.228  230.631  230.833  229.481  230.724  228.466  229.464  230.226  228.407  227.724  227.444  230.773  225.823  228.391  228.225  228.209  227.034  228.182  225.630  227.062  227.478  226.414  227.136  227.223  227.090  229.057  228.714  224.193  228.414  227.278  228.763  227.662  225.443  229.139  225.914  228.154  227.620  229.971  226.196  228.762  226.268  227.592  225.659  235.373 
DATE 2017:067:17:07:37 obsn  28 az 318 el 76 freq_MHz  1420.4000 Tsys 213.599 Tant 23.737 vlsr  -18.21 glat -0.040 glon 85.118 source G85.0 
Fstart 1419.397 fstop 1421.403 spacing 0.009375 bw    2.400 fbw    2.000 MHz nfreq 256 nsam 5242880 npoint 214 integ     8 sigma    0.798 bsw 0
Spectrum      7 integration periods
 235.496  233.726  235.458  234.588  232.735  233.955  233.367  232.659  233.583  232.278  230.806  232.654  232.129  232.283  232.054  233.898  232.417  231.899  232.536  233.312  233.570  233.831  233.069  232.493  231.861  231.905  231.769  232.576  232.502  232.750  232.496  232.227  232.746  233.556  232.502  233.405  232.842  234.419  232.488  231.442  230.673  233.211  232.771  232.127  233.097  234.126  231.601  232.881  232.362  234.231  234.912  233.839  233.905  232.707  234.647  233.018  233.353  232.300  234.320  232.994  232.373  232.020  234.806  235.042  232.679  231.511  233.140  233.820  241.948  235.347  236.749  242.398  233.158  231.502  231.795  233.905  232.238  231.623  231.795  232.150  231.707  230.877  232.527  233.205  232.833  233.072  232.809  233.134  233.530  233.569  232.034  232.672  233.306  233.052  233.089  232.462  233.789  232.741  232.825  232.991  232.200  232.257  232.574  231.768  234.260  234.822  232.912  235.042  233.140  235.527  235.335  239.001  242.397  248.986  254.932  263.864  274.266  285.153  294.006  298.222  297.192  292.276  280.900  274.637  270.478  265.968  262.592  261.367  258.951  255.526  254.143  253.114  250.536  248.671  245.080  242.391  242.886  242.028  239.183  240.147  240.239  237.557  237.637  238.418  238.480  237.391  237.313  236.424  236.834  236.915  236.939  237.335  237.456  237.929  236.706  239.334  236.997  236.162  239.379  238.303  238.933  236.745  237.834  236.732  236.880  236.126  234.872  232.734  233.163  234.388  233.373  232.448  232.461  232.239  230.897  231.332  229.514  228.507  230.290  229.827  229.096  229.414  230.501  227.802  229.066  226.494  228.940  229.393  230.192  227.874  227.828  229.357  227.729  227.172  228.544  228.435  229.613  228.095  228.546  228.355  228.912  230.564  229.005  229.672  230.784  231.058  231.682  229.561  229.178  229.392  229.464  229.181  228.180  238.094 
DATE 2017:067:17:08:04 obsn  29 az 328 el 76 freq_MHz  1420.4000 Tsys 213.599 Tant 23.396 vlsr  -16.53 glat -0.031 glon 87.618 source G87.5 
Fstart 1419.397 fstop 1421.403 spacing 0.009375 bw    2.400 fbw    2.000 MHz nfreq 256 nsam 5242880 npoint 214 integ     7 sigma    0.862 bsw 0
Spectrum      6 integration periods
 235.545  234.430  235.429  234.146  234.553  231.596  233.708  233.204  233.668  234.065  232.289  232.245  232.595  232.279  232.648  231.321  232.498  230.946  232.061  233.245  232.369  233.305  232.756  233.025  233.130  233.072  231.930  231.369  231.361  231.710  230.517  230.958  232.147  231.283  232.164  233.425  232.673  232.752  231.605  232.866  231.784  232.744  231.804  233.901  234.845  232.791  233.063  231.528  232.265  231.406  232.037  231.536  232.085  231.625  235.431  231.278  232.065  232.615  232.362  232.246  232.559  233.330  233.846  235.390  232.191  233.386  232.885  231.693  244.976  236.155  237.512  238.501  232.847  233.069  232.212  232.645  232.606  232.415  231.231  232.919  232.549  230.998  233.052  231.919  231.663  233.007  231.474  232.374  233.151  233.628  233.339  233.652  232.969  233.553  234.114  232.897  232.935  231.153  232.804  231.895  231.861  231.916  232.078  234.426  233.533  231.685  233.858  231.695  232.666  234.474  236.750  238.746  242.442  248.853  255.505  265.692  274.932  286.498  295.634  299.399  295.474  286.841  277.501  270.658  265.261  262.166  259.013  256.324  253.637  254.264  253.125  250.480  248.422  247.100  244.130  241.869  242.828  242.574  239.389  238.985  238.301  237.388  236.458  236.886  238.807  236.698  236.684  235.662  237.057  235.086  235.973  236.427  235.515  237.442  236.719  235.859  235.751  235.178  237.146  236.275  238.658  236.613  236.173  234.996  237.584  233.661  234.269  233.319  234.477  232.862  233.176  232.204  231.961  232.611  232.725  230.854  229.516  229.634  229.684  230.950  230.327  227.961  227.949  227.787  226.965  230.161  230.088  229.360  229.093  229.898  230.149  230.096  231.016  227.971  227.733  230.459  229.282  227.744  229.725  229.071  227.362  229.341  229.398  229.457  229.790  231.547  229.893  227.887  227.594  228.405  228.885  228.550  228.411  232.096 
DATE 2017:067:17:08:39 obsn  30 az 338 el 75 freq_MHz  1420.4000 Tsys 213.599 Tant 23.712 vlsr  -14.82 glat -0.022 glon 90.118 source G90.0 
Fstart 1419.397 fstop 1421.403 spacing 0.009375 bw    2.400 fbw    2.000 MHz nfreq 256 nsam 5242880 npoint 214 integ     7 sigma    0.862 bsw 0
Spectrum      6 integration periods
 234.527  232.862  231.627  234.381  234.619  232.388  234.154  231.550  231.682  234.534  231.811  233.630  232.665  231.680  230.900  231.462  232.075  233.258  233.567  232.349  232.845  233.078  234.607  232.360  231.989  231.694  232.405  232.631  230.084  231.998  233.859  233.499  233.170  233.882  231.297  233.078  232.159  232.582  232.289  231.886  230.984  232.689  231.889  232.340  231.223  230.445  232.151  232.133  233.560  231.721  230.803  230.944  231.736  230.824  235.397  235.207  233.337  232.548  233.430  231.057  231.069  232.978  233.179  233.640  231.986  231.190  231.359  232.346  242.178  234.296  226.411  243.012  232.718  232.370  230.459  230.884  232.577  232.554  231.970  231.596  232.877  232.272  232.503  232.948  231.435  231.702  233.093  232.467  230.672  233.217  233.180  233.197  232.189  232.744  233.317  230.731  232.279  231.534  233.638  232.406  232.663  233.044  232.586  231.605  233.631  233.219  231.107  234.099  232.695  233.870  237.125  237.315  241.716  249.221  256.094  265.648  278.625  288.862  297.695  298.185  293.587  287.439  275.852  268.136  262.014  258.312  254.686  255.140  253.393  251.787  253.599  249.986  248.270  246.739  247.517  243.596  243.467  243.768  241.186  239.161  239.332  239.288  238.108  238.042  239.708  238.762  238.044  236.264  239.067  237.138  235.964  236.789  237.166  237.967  238.125  239.075  237.539  239.795  238.356  238.086  237.135  237.684  238.920  237.451  235.470  237.447  235.938  235.361  234.787  234.694  233.943  232.708  231.887  231.939  231.256  231.302  230.423  230.373  229.360  229.130  230.440  228.587  231.587  231.455  229.462  229.548  230.044  231.240  230.228  228.090  228.309  230.219  230.974  230.159  227.751  231.886  231.134  229.473  229.430  230.587  228.428  228.778  228.463  228.605  228.450  232.002  232.829  229.995  228.969  229.985  229.024  230.116  228.891  231.100 
DATE 2017:067:17:09:11 obsn  31 az 346 el 74 freq_MHz  1420.4000 Tsys 213.599 Tant 24.668 vlsr  -13.07 glat -0.013 glon 92.618 source G92.5 
Fstart 1419.397 fstop 1421.403 spacing 0.009375 bw    2.400 fbw    2.000 MHz nfreq 256 nsam 5242880 npoint 214 integ     7 sigma    0.862 bsw 0
Spectrum      6 integration periods
 237.335  236.708  236.316  234.740  233.479  234.420  233.200  233.541  235.269  235.258  233.488  232.839  234.916  234.651  235.400  235.286  234.348  233.730  231.984  233.076  232.782  236.055  232.557  232.584  234.113  234.155  233.870  233.864  234.666  233.089  234.479  233.651  233.755  234.173  233.025  231.917  233.341  233.182  233.525  233.092  235.172  234.081  234.245  232.986  235.165  234.711  233.723  234.347  235.855  235.646  235.302  233.074  234.003  233.694  234.103  235.156  234.441  235.188  235.942  234.113  232.729  234.891  234.145  236.842  232.532  234.549  236.409  235.528  244.130  236.354  241.619  248.781  233.427  233.240  235.110  234.261  234.853  232.455  234.098  233.855  234.614  234.071  233.010  234.734  233.337  234.062  236.218  233.567  234.826  234.888  233.945  234.537  234.673  235.424  232.081  235.311  235.288  235.717  233.705  234.188  234.971  234.909  235.064  233.502  232.891  234.851  235.426  235.190  236.421  236.283  237.851  238.242  246.659  251.840  259.993  267.344  278.827  290.955  298.607  298.827  289.428  281.774  274.322  265.321  261.155  257.289  256.297  255.392  254.083  254.821  253.686  252.046  249.797  249.979  249.675  246.174  246.596  246.442  243.947  244.966  243.685  241.977  241.678  241.941  240.130  241.381  241.501  241.091  239.796  239.090  240.264  239.367  238.134  239.941  239.737  238.974  239.776  240.087  240.901  239.401  240.688  241.602  240.273  240.956  239.832  237.859  239.977  237.806  236.413  236.836  234.906  236.359  235.535  235.354  235.099  232.621  233.443  233.812  232.231  231.233  234.117  233.248  230.629  230.866  231.650  230.749  231.210  231.175  231.090  232.134  230.688  229.806  231.794  231.174  230.740  231.771  231.348  230.623  231.808  231.327  232.410  232.728  232.364  233.422  233.766  239.543  235.920  231.091  232.493  230.737  233.146  231.672  231.779  233.608 
DATE 2017:067:17:09:35 obsn  32 az 354 el 73 freq_MHz  1420.4000 Tsys 213.599 Tant 23.599 vlsr  -11.31 glat -0.004 glon 95.118 source G95.0 
Fstart 1419.397 fstop 1421.403 spacing 0.009375 bw    2.400 fbw    2.000 MHz nfreq 256 nsam 5242880 npoint 214 integ     5 sigma    0.944 bsw 0
Spectrum      5 integration periods
 235.504  233.298  232.146  233.758  231.902  229.232  232.197  233.907  232.383  232.166  231.602  232.104  231.480  230.162  231.765  231.903  230.577  233.111  230.694  232.714  231.407  231.791  230.460  232.559  232.937  231.080  231.214  230.606  231.555  233.175  231.493  230.689  231.851  230.338  232.398  231.554  233.184  231.469  231.204  230.683  231.259  231.541  232.054  231.136  231.754  233.534  231.197  231.361  230.312  231.970  232.774  233.727  230.901  232.747  231.425  232.468  230.799  233.460  233.156  230.118  229.915  233.201  232.238  231.903  230.012  232.277  233.725  231.366  236.983  234.235  242.913  245.838  232.767  231.076  230.357  231.821  232.409  229.911  230.882  231.274  232.974  232.095  229.873  230.810  231.613  231.593  231.465  231.149  233.130  232.800  233.227  231.968  234.113  231.909  232.752  232.538  233.908  232.712  232.146  232.127  231.408  232.053  233.330  232.827  232.493  232.734  231.776  232.902  232.446  233.297  237.725  237.267  243.837  248.469  254.485  264.805  273.831  286.053  293.860  290.720  287.403  278.579  270.206  263.716  258.478  254.212  252.455  252.346  252.041  252.662  253.010  252.043  249.045  246.851  248.580  246.451  244.438  246.800  243.045  243.556  241.030  241.626  241.649  238.696  239.289  239.585  239.145  238.191  238.290  237.433  237.098  238.724  240.033  239.400  238.699  236.535  237.733  237.785  240.280  238.480  237.673  236.441  236.941  237.451  237.986  235.376  235.471  235.109  234.533  236.711  235.584  236.176  232.601  234.049  231.321  235.349  232.293  231.542  231.318  230.402  229.727  230.342  231.470  231.055  231.067  229.875  231.527  229.405  228.952  229.941  231.155  230.852  231.673  228.965  229.692  230.543  230.770  230.741  230.416  228.895  230.127  230.661  230.582  230.427  230.213  231.656  232.749  231.663  229.060  229.073  230.382  229.699  228.943  231.805 
* cmd out of limits az 358.487780 el 71.614976
DATE 2017:067:17:15:53 obsn  33 az   4 el 69 freq_MHz  1420.4000 Tsys 213.599 Tant 266.914 vlsr   -7.71 glat  0.014 glon 100.118 source G100.0 
Fstart 1419.397 fstop 1421.403 spacing 0.009375 bw    2.400 fbw    2.000 MHz nfreq 256 nsam 5242880 npoint 214 integ     1 sigma    2.111 bsw 0
Spectrum      1 integration periods
 491.083  486.252  492.011  489.966  490.172  486.661  490.902  480.305  482.250  484.479  473.085  493.590  481.348  485.204  489.191  490.255  491.443  492.941  496.358  485.443  489.255  484.376  497.645  483.883  495.087  485.331  487.811  491.414  497.529  490.761  490.817  481.508  481.569  486.208  478.673  480.231  484.876  474.910  491.089  484.829  471.287  484.784  480.889  491.236  492.638  482.777  473.168  484.797  485.541  481.391  486.000  473.824  482.799  485.530  483.093  485.125  482.943  489.351  487.944  484.657  495.450  506.808  496.309  508.490  494.527  496.270  520.517  495.791  518.252  499.438  470.901  487.606  485.257  484.651  477.251  483.521  484.543  483.530  476.615  466.330  477.720  479.405  475.167  485.214  481.827  477.968  483.290  478.577  490.332  487.993  486.427  484.582  485.774  490.475  489.778  494.707  479.645  486.536  490.386  497.616  491.034  486.015  496.222  506.027  524.633  503.600  487.593  499.529  487.216  492.044  479.847  476.123  477.850  478.646  468.393  467.670  471.714  471.440  475.775  478.525  470.639  476.140  474.665  474.043  476.015  469.490  471.941  471.452  474.431  479.014  470.004  471.878  477.346  475.768  472.875  478.287  487.493  478.471  483.019  477.518  478.854  486.411  486.859  473.639  486.271  480.214  481.127  481.241  478.018  476.432  468.257  474.997  468.201  467.470  467.239  469.406  464.575  465.646  474.257  470.344  463.306  474.521  464.285  466.175  471.580  474.039  478.897  466.843  467.851  465.492  466.161  462.712  466.753  462.441  464.342  461.754  467.731  463.755  468.607  477.379  468.762  460.538  469.200  460.834  475.109  469.709  465.666  463.690  470.013  468.435  464.291  470.460  462.618  468.070  469.402  466.225  461.424  464.986  463.528  467.540  472.540  470.198  473.574  468.101  454.877  467.152  461.498  460.655  465.453  466.978  467.365  459.532  465.729  463.684 
DATE 2017:067:17:16:15 obsn  34 az   3 el 70 freq_MHz  1420.4000 Tsys 213.599 Tant 20.061 vlsr   -7.71 glat  0.014 glon 100.118 source G100.0 
Fstart 1419.397 fstop 1421.403 spacing 0.009375 bw    2.400 fbw    2.000 MHz nfreq 256 nsam 5242880 npoint 214 integ    12 sigma    0.636 bsw 0
Spectrum     11 integration periods
 253.352  253.769  252.418  252.433  252.985  250.556  251.263  250.320  251.943  250.964  249.366  253.071  250.410  250.198  251.509  251.781  251.516  252.031  252.588  251.458  252.402  251.258  252.660  251.374  251.909  251.569  251.160  251.490  252.326  251.483  252.185  251.443  250.916  250.354  251.445  250.485  250.527  250.417  251.791  251.391  249.414  249.781  250.006  251.797  252.154  250.269  249.615  251.211  251.860  251.720  251.488  250.706  250.965  250.006  251.291  250.357  250.544  252.121  251.508  252.569  251.472  254.084  250.717  254.614  252.149  253.202  255.914  252.898  260.187  253.686  253.720  267.605  252.067  251.964  249.738  249.245  251.548  251.465  251.584  249.715  252.212  250.445  249.101  251.363  250.940  250.538  252.091  249.965  251.864  254.426  251.799  250.165  250.990  253.118  250.933  252.397  251.540  252.472  252.304  252.597  253.300  251.121  252.133  254.991  256.231  253.727  252.507  254.938  252.884  254.614  255.308  256.170  259.135  264.481  270.651  280.291  288.923  297.478  296.488  294.497  288.623  283.916  276.965  273.938  271.038  267.517  266.649  268.377  269.074  267.836  270.221  269.997  271.547  272.681  272.745  271.920  270.851  269.787  268.489  265.111  265.492  267.053  263.516  261.775  262.840  261.468  260.905  260.903  260.417  259.393  258.229  257.675  256.377  258.787  257.051  255.834  256.752  256.663  255.883  254.917  253.393  255.229  253.105  252.572  251.760  254.349  252.910  252.829  251.860  251.625  251.865  250.750  251.615  250.671  250.007  251.269  249.629  249.130  249.119  250.707  250.133  248.719  248.658  249.543  249.750  249.332  248.733  248.195  248.766  249.317  248.671  250.286  247.670  248.512  250.389  248.841  248.376  249.151  249.407  247.791  250.476  249.718  249.036  249.623  247.297  251.377  249.599  248.483  247.625  248.565  249.316  248.019  248.387  250.075 
DATE 2017:067:17:16:36 obsn  35 az   8 el 68 freq_MHz  1420.4000 Tsys 213.599 Tant 19.720 vlsr   -5.89 glat  0.023 glon 102.618 source G102.5 
Fstart 1419.397 fstop 1421.403 spacing 0.009375 bw    2.400 fbw    2.000 MHz nfreq 256 nsam 5242880 npoint 214 integ    11 sigma    0.667 bsw 0
Spectrum     10 integration periods
 230.162  230.296  228.859  227.791  228.552  228.011  227.806  226.947  228.232  228.711  227.888  226.463  226.999  227.450  228.302  227.680  227.908  227.416  227.179  227.205  226.692  227.024  227.161  227.092  228.535  227.500  226.931  227.788  227.493  226.295  226.805  226.996  227.288  225.692  226.663  226.944  226.191  226.896  227.321  227.653  226.733  227.448  227.076  227.412  226.449  227.411  226.321  226.387  226.651  226.206  227.556  225.930  226.778  226.983  227.255  227.489  227.628  227.472  227.109  226.587  227.982  227.432  227.699  226.010  226.163  227.300  227.769  229.100  231.050  227.289  225.952  243.955  227.111  227.487  226.411  226.502  228.560  226.238  226.574  227.264  227.259  226.171  227.033  226.522  226.075  226.527  226.747  226.653  226.583  227.576  226.264  227.362  226.048  227.438  226.290  226.349  228.301  227.078  227.945  227.367  227.320  227.206  227.096  226.668  228.287  228.380  228.327  229.155  229.156  230.133  232.159  233.364  235.694  243.614  254.963  265.987  274.376  277.322  271.793  267.404  262.572  257.887  251.532  247.968  246.424  243.408  242.653  244.102  243.425  244.481  243.850  249.257  250.194  250.553  252.521  252.745  252.832  251.683  251.640  248.766  246.795  245.857  244.295  242.526  244.058  242.775  241.482  241.135  239.501  238.683  238.209  236.350  235.910  235.769  234.060  233.265  232.861  232.466  231.375  230.530  231.457  230.576  231.244  230.182  230.226  230.125  230.586  231.440  229.930  229.703  228.459  227.994  227.824  229.131  229.296  229.046  227.376  226.503  227.185  226.234  228.186  227.184  227.145  225.944  224.769  225.522  225.210  227.005  226.626  225.406  226.450  224.409  225.882  225.468  226.514  226.307  225.982  226.637  226.405  224.297  225.807  226.470  226.644  225.673  225.936  226.348  226.915  226.563  224.767  225.179  225.281  225.761  226.607  228.848 
DATE 2017:067:17:17:05 obsn  36 az  16 el 64 freq_MHz  1420.4000 Tsys 213.599 Tant 20.201 vlsr   -2.22 glat  0.040 glon 107.618 source G107.5 
Fstart 1419.397 fstop 1421.403 spacing 0.009375 bw    2.400 fbw    2.000 MHz nfreq 256 nsam 5242880 npoint 214 integ     1 sigma    2.111 bsw 0
Spectrum      1 integration periods
 232.910  231.814  228.412  232.052  231.691  229.225  229.787  231.754  226.211  229.944  232.727  229.923  230.471  228.371  224.622  232.182  227.058  229.882  230.784  227.993  230.629  229.351  231.393  231.575  231.403  228.466  226.080  226.678  228.368  228.835  232.457  229.089  230.308  230.189  228.411  230.446  227.908  230.439  230.205  229.858  226.933  229.955  234.264  231.391  229.508  226.795  228.248  225.123  229.199  224.912  227.147  229.868  229.461  229.458  227.339  230.054  230.076  230.056  228.290  231.818  228.395  231.071  227.631  227.624  224.347  224.003  228.300  229.392  238.973  228.814  235.444  250.350  227.387  230.708  226.711  225.934  229.230  230.313  228.703  229.348  229.218  228.021  228.678  225.991  226.354  230.690  230.626  227.769  226.030  225.934  224.443  229.974  229.098  231.022  227.390  226.890  228.077  227.631  225.911  227.931  229.015  227.644  230.117  232.091  231.623  228.411  232.002  231.331  229.461  229.596  237.343  242.143  248.350  259.486  267.036  278.827  277.635  270.648  258.826  253.400  249.992  246.676  245.167  241.482  247.350  246.170  246.084  242.748  244.737  245.121  248.964  257.122  256.797  251.701  255.620  257.300  254.788  254.376  254.131  253.666  249.494  254.390  252.778  252.735  251.014  245.969  244.619  242.639  239.216  237.486  237.520  234.128  234.497  232.079  234.526  231.061  230.365  229.645  227.821  229.759  230.472  230.891  229.843  229.754  231.840  227.007  226.858  229.172  231.498  231.424  225.756  230.482  227.734  230.612  229.193  226.709  225.081  230.389  226.161  225.042  222.916  229.435  227.154  223.624  225.460  225.977  227.848  226.537  225.684  229.302  226.355  226.700  223.296  227.351  225.690  224.891  225.490  224.266  229.101  223.599  225.804  224.639  223.756  225.151  227.850  224.836  221.056  221.467  223.074  225.558  223.411  225.459  224.500  228.771 
DATE 2017:067:17:17:26 obsn  37 az  19 el 62 freq_MHz  1420.4000 Tsys 213.599 Tant 21.917 vlsr   -0.37 glat  0.049 glon 110.118 source G110.0 
Fstart 1419.397 fstop 1421.403 spacing 0.009375 bw    2.400 fbw    2.000 MHz nfreq 256 nsam 5242880 npoint 214 integ     2 sigma    1.493 bsw 0
Spectrum      2 integration periods
 230.643  231.655  228.282  231.087  231.890  231.512  227.645  228.785  230.037  227.642  232.224  230.984  229.460  233.558  228.419  228.703  232.084  233.264  230.742  228.043  228.487  227.691  231.948  226.757  228.612  228.947  230.599  229.104  230.025  227.496  229.689  230.278  231.243  227.273  227.942  228.490  230.895  230.093  229.594  228.634  228.471  232.589  232.306  229.299  227.961  230.530  231.154  226.299  231.511  227.451  229.352  231.067  230.435  231.252  228.913  229.170  228.447  232.616  227.974  232.151  232.704  229.358  227.328  231.167  231.197  230.689  230.797  235.481  238.168  230.612  219.568  246.265  230.123  230.819  228.736  229.132  230.019  228.258  229.944  230.440  229.583  232.876  232.670  230.521  230.955  230.904  231.004  231.122  229.718  236.491  232.143  228.499  231.024  230.385  230.447  231.691  232.427  229.916  231.770  230.796  230.211  231.185  231.061  231.408  230.560  227.883  232.736  233.371  235.162  235.977  246.233  247.863  258.757  271.695  278.157  281.323  276.574  270.808  264.624  261.335  255.340  252.376  247.849  243.020  246.110  243.043  245.186  246.003  247.551  249.770  248.794  256.913  256.810  257.547  261.314  256.437  258.712  257.633  259.950  263.076  259.128  260.710  256.438  256.420  249.547  251.170  243.824  246.745  242.059  240.087  241.840  240.178  235.485  233.418  236.105  234.208  232.910  231.796  232.567  232.324  230.188  234.145  232.799  236.357  233.844  231.216  231.911  232.774  232.609  233.289  232.327  230.725  230.950  231.119  231.382  228.043  230.538  228.718  231.108  230.304  231.204  229.435  230.428  230.251  229.707  227.065  229.152  232.296  227.481  227.493  227.393  226.396  228.399  228.791  227.360  227.411  228.752  226.748  227.306  227.298  226.776  230.867  228.480  229.974  225.618  229.769  225.350  226.663  226.867  227.280  229.774  228.579  228.971  230.199 
DATE 2017:067:17:17:47 obsn  38 az  22 el 60 freq_MHz  1420.4000 Tsys 213.599 Tant 21.604 vlsr    1.48 glat  0.058 glon 112.617 source G112.5 
Fstart 1419.397 fstop 1421.403 spacing 0.009375 bw    2.400 fbw    2.000 MHz nfreq 256 nsam 5242880 npoint 214 integ     2 sigma    1.493 bsw 0
Spectrum      2 integration periods
 233.009  230.007  229.415  230.417  229.646  229.804  226.687  229.716  230.217  228.148  228.532  228.267  229.608  229.499  227.474  228.265  227.418  228.822  228.681  227.552  227.042  225.192  227.585  229.211  229.563  228.724  227.943  228.753  231.194  228.486  227.356  230.854  229.153  228.728  227.652  229.500  227.838  228.710  225.630  228.736  229.429  226.639  226.165  227.882  228.570  226.148  226.092  226.748  228.811  226.991  232.339  228.590  226.961  226.196  227.637  228.652  230.322  228.910  226.346  226.580  227.878  227.543  229.064  227.380  227.643  230.615  229.884  232.158  240.067  235.270  225.456  241.368  229.234  229.575  227.245  227.580  230.483  228.450  229.632  227.800  227.976  227.087  230.729  228.551  229.226  230.147  230.784  230.395  230.533  231.543  229.868  229.959  232.733  230.592  228.446  227.596  226.971  226.202  225.538  228.455  229.461  227.940  231.125  230.026  227.982  229.226  231.115  235.414  235.384  239.747  245.845  254.279  268.680  275.991  284.015  284.043  276.144  268.001  262.281  256.822  253.332  247.142  243.952  241.416  240.504  241.951  241.910  242.319  244.006  243.448  249.195  254.087  259.241  263.322  263.518  264.763  264.854  264.458  262.481  265.816  264.941  264.237  257.366  257.004  250.001  247.348  244.263  242.011  242.072  237.649  235.039  236.151  237.630  233.989  233.480  235.974  230.732  232.593  231.345  233.613  233.905  234.697  233.891  231.389  232.759  233.698  232.742  231.780  230.203  232.760  231.437  233.106  232.061  229.492  230.257  229.560  229.312  228.673  227.091  229.103  230.447  228.493  227.332  231.777  229.758  228.861  228.620  228.363  228.325  231.411  229.933  230.318  229.938  227.184  227.430  226.924  228.930  227.197  229.424  227.043  226.745  230.637  229.966  229.584  225.656  227.780  228.698  226.996  229.199  228.861  228.849  228.739  229.688  226.914 
DATE 2017:067:17:18:08 obsn  39 az  24 el 58 freq_MHz  1420.4000 Tsys 213.599 Tant 20.780 vlsr    3.32 glat  0.066 glon 115.117 source G115.0 
Fstart 1419.397 fstop 1421.403 spacing 0.009375 bw    2.400 fbw    2.000 MHz nfreq 256 nsam 5242880 npoint 214 integ     3 sigma    1.219 bsw 0
Spectrum      3 integration periods
 227.159  228.253  230.325  228.359  227.551  226.703  227.419  227.271  225.882  227.634  227.161  225.001  226.330  227.299  226.560  226.349  227.867  224.097  225.169  225.726  227.563  226.950  224.993  227.138  226.754  230.337  228.109  226.413  228.589  224.616  228.124  229.076  227.590  227.787  228.092  227.574  227.890  227.757  228.568  225.683  228.273  226.492  227.573  229.570  224.461  225.600  226.302  227.262  225.037  226.422  227.003  224.348  224.931  226.484  226.409  225.337  226.301  227.967  227.483  227.734  224.075  224.958  227.376  229.723  225.305  226.899  228.570  227.331  233.527  232.654  227.289  233.735  226.709  229.493  227.951  229.036  228.249  226.371  225.983  226.979  229.195  227.373  224.820  227.389  229.326  227.428  226.583  224.857  226.082  229.012  226.156  227.500  227.649  228.023  226.881  227.476  228.117  224.466  225.890  228.497  227.094  225.215  227.624  228.555  229.156  228.166  229.711  232.698  233.711  238.894  250.644  261.459  272.400  279.101  279.542  278.143  271.721  268.670  261.098  254.366  251.589  245.988  240.225  238.102  239.058  238.450  241.846  243.705  247.052  252.696  255.650  261.671  266.599  269.145  270.956  270.938  271.916  264.985  264.560  262.855  260.803  257.299  253.650  252.190  245.253  243.599  242.464  236.724  237.785  236.006  236.087  236.100  232.624  232.370  232.773  235.801  233.068  234.200  230.271  231.170  233.167  228.424  232.145  232.618  233.123  229.057  227.477  227.974  229.711  228.534  228.117  226.264  227.522  228.999  230.240  225.842  225.728  223.654  226.171  226.800  225.532  225.976  226.195  225.104  225.841  225.881  227.003  224.785  226.686  226.459  224.747  226.258  225.094  224.498  224.480  226.415  227.393  228.312  224.145  225.508  226.609  226.419  225.587  227.518  225.560  227.925  224.544  225.793  223.573  225.940  227.649  225.720  224.584  226.900 
DATE 2017:067:17:18:30 obsn  40 az  26 el 56 freq_MHz  1420.4000 Tsys 213.599 Tant 20.716 vlsr    5.15 glat  0.075 glon 117.617 source G117.5 
Fstart 1419.397 fstop 1421.403 spacing 0.009375 bw    2.400 fbw    2.000 MHz nfreq 256 nsam 5242880 npoint 214 integ     3 sigma    1.219 bsw 0
Spectrum      3 integration periods
 229.046  228.899  228.314  227.736  227.479  226.338  226.808  226.701  227.759  226.942  226.383  228.180  227.587  226.821  228.884  227.592  226.860  227.292  227.147  228.287  228.728  227.902  226.455  228.956  228.272  229.384  228.447  230.502  226.830  228.096  229.298  226.096  225.133  228.654  225.730  226.271  228.783  228.136  228.839  230.978  229.242  226.852  225.402  227.031  227.681  227.378  227.527  225.751  226.664  226.138  227.374  225.027  226.258  225.476  226.681  227.567  227.459  225.759  227.648  225.658  228.640  228.316  229.271  229.840  226.868  227.428  226.134  229.504  231.053  224.999  233.696  231.932  229.866  226.474  229.104  226.983  227.778  226.602  225.925  226.955  225.573  226.214  228.382  225.728  227.977  229.038  227.477  227.830  227.887  228.860  227.506  225.782  226.686  227.526  226.284  224.861  227.810  226.297  228.736  228.823  227.910  226.455  228.247  227.240  231.935  230.617  233.545  235.971  240.567  247.054  260.046  269.012  278.579  278.458  277.816  276.566  272.401  266.378  263.078  253.931  251.295  248.669  244.176  240.282  242.145  242.513  242.968  248.334  253.258  259.620  259.888  264.591  270.275  272.899  271.810  272.472  274.552  269.067  261.442  259.310  255.356  253.673  248.488  245.142  242.669  241.327  239.556  239.542  236.324  234.818  231.327  233.145  231.480  234.463  231.639  230.534  232.013  230.821  231.116  231.957  231.903  230.933  230.607  233.788  230.529  231.859  231.725  228.275  226.689  227.754  227.994  227.836  225.868  225.754  226.859  228.176  227.426  225.467  227.557  226.189  226.028  224.665  223.985  227.662  224.990  225.835  225.509  226.086  226.344  227.523  223.703  226.020  226.328  225.636  225.845  226.615  222.492  226.706  224.214  224.836  223.908  224.317  223.317  226.632  222.767  226.219  226.512  226.064  223.762  224.725  224.097  227.148  225.105  227.553 
DATE 2017:067:17:18:51 obsn  41 az  28 el 54 freq_MHz  1420.4000 Tsys 213.599 Tant 20.313 vlsr    6.98 glat  0.083 glon 120.117 source G120.0 
Fstart 1419.397 fstop 1421.403 spacing 0.009375 bw    2.400 fbw    2.000 MHz nfreq 256 nsam 5242880 npoint 214 integ     4 sigma    1.055 bsw 0
Spectrum      4 integration periods
 228.091  229.173  229.115  227.499  227.784  228.542  225.216  227.890  227.210  227.047  227.443  227.345  226.703  226.363  227.568  226.370  228.385  227.003  227.073  226.302  227.817  226.096  225.931  227.221  227.927  227.116  225.508  228.290  229.841  228.372  225.544  226.399  226.667  226.643  226.904  226.989  227.492  228.357  227.166  225.861  225.554  227.502  226.518  226.434  225.927  227.637  227.463  227.600  227.117  225.406  227.515  226.761  229.059  227.292  225.058  226.793  228.624  226.043  227.297  226.537  227.017  224.904  227.676  228.845  227.376  227.265  227.901  225.392  232.592  234.369  225.010  234.651  227.066  226.395  225.976  229.505  228.770  226.391  224.855  225.601  226.487  226.459  226.389  226.037  227.873  228.936  226.780  225.067  227.586  228.421  229.507  227.803  225.120  225.664  226.692  227.209  228.343  226.807  224.236  226.930  225.950  227.848  228.273  228.038  228.713  232.246  233.490  237.006  243.348  256.620  266.413  273.692  279.692  276.672  273.956  273.049  269.310  265.019  258.975  256.274  250.124  246.956  242.508  241.968  241.392  241.362  243.036  249.271  254.854  260.775  266.340  267.602  269.928  270.057  268.705  265.235  264.156  260.961  258.558  256.299  251.908  249.196  247.330  246.644  241.113  239.277  237.567  236.556  234.944  232.233  230.979  232.163  232.122  230.046  230.739  230.176  228.111  227.747  229.913  229.525  230.230  229.945  231.136  229.292  228.521  230.179  228.462  228.211  228.306  226.603  227.522  226.895  227.235  225.523  223.800  224.976  223.464  224.431  225.929  225.244  225.119  223.176  223.996  224.240  223.483  223.765  225.723  222.402  227.005  222.948  225.276  223.728  223.749  224.712  226.042  225.029  223.878  223.771  222.867  222.396  225.228  222.636  222.917  224.784  224.735  225.069  224.671  222.952  222.774  222.292  224.034  225.867  223.412  222.819 
DATE 2017:067:17:19:12 obsn  42 az  30 el 52 freq_MHz  1420.4000 Tsys 213.599 Tant 18.805 vlsr    8.80 glat  0.091 glon 122.617 source G122.5 
Fstart 1419.397 fstop 1421.403 spacing 0.009375 bw    2.400 fbw    2.000 MHz nfreq 256 nsam 5242880 npoint 214 integ     4 sigma    1.055 bsw 0
Spectrum      4 integration periods
 229.116  228.738  225.225  224.961  226.143  227.556  225.996  227.007  227.381  225.292  226.340  227.295  223.800  225.370  225.859  224.320  226.697  225.370  224.885  225.652  226.916  225.540  224.097  228.353  226.740  227.948  227.789  225.872  226.212  225.700  226.046  225.589  227.724  224.401  225.914  226.652  225.680  227.789  227.204  225.760  226.017  225.908  224.596  224.446  226.821  226.098  225.687  226.085  225.211  224.150  225.909  227.579  225.858  225.885  226.108  227.301  224.432  223.951  225.446  225.857  223.464  226.086  225.686  228.017  225.175  224.175  224.267  224.511  228.506  226.407  229.066  229.844  228.078  225.331  226.527  223.937  224.446  224.735  224.395  225.100  223.940  223.123  224.111  226.267  225.275  226.351  225.440  227.108  225.270  227.637  225.133  225.614  226.512  225.446  224.124  225.415  226.907  226.663  224.684  225.595  226.886  227.255  227.710  228.156  230.255  231.986  235.780  243.318  253.275  266.428  272.410  275.456  273.773  272.975  271.136  268.026  262.812  260.372  255.569  250.484  247.841  245.741  241.837  240.411  241.984  243.603  245.641  251.139  257.142  262.389  267.564  269.572  266.233  263.477  263.925  261.733  258.865  255.266  250.923  251.957  246.213  246.544  243.729  240.316  239.039  236.269  233.836  231.403  229.600  229.485  229.475  228.717  226.760  227.141  229.319  229.377  227.592  228.048  226.091  227.571  229.387  230.927  227.849  230.569  226.017  230.605  230.373  229.309  225.434  225.271  225.752  227.394  224.950  226.167  223.918  226.103  224.463  223.526  224.165  221.649  226.078  224.956  223.425  222.804  222.238  223.911  224.956  222.382  223.990  224.242  224.702  223.165  222.041  220.639  222.955  222.697  225.397  222.690  222.869  221.118  224.691  224.214  222.642  224.176  224.110  223.527  223.758  224.144  222.396  222.977  221.787  226.175  223.079  223.181 
DATE 2017:067:17:19:33 obsn  43 az  32 el 49 freq_MHz  1420.4000 Tsys 213.599 Tant 16.431 vlsr   10.59 glat  0.099 glon 125.117 source G125.0 
Fstart 1419.397 fstop 1421.403 spacing 0.009375 bw    2.400 fbw    2.000 MHz nfreq 256 nsam 5242880 npoint 214 integ     5 sigma    0.944 bsw 0
Spectrum      5 integration periods
 227.101  226.583  224.672  224.898  223.593  224.167  225.238  224.910  222.975  224.931  224.801  224.306  223.074  223.712  223.782  223.851  223.198  222.755  223.601  222.424  225.051  222.119  222.885  223.563  226.098  222.342  223.773  223.962  223.511  221.951  223.609  223.308  222.974  223.551  223.951  223.379  223.007  222.463  223.668  222.602  223.490  223.162  222.443  223.156  222.811  224.322  223.482  222.336  223.081  222.417  224.350  222.803  222.726  221.878  223.756  221.883  222.508  222.716  222.780  223.151  222.238  223.183  224.488  222.832  222.343  221.017  224.492  223.808  224.468  223.767  219.910  229.996  224.920  223.276  222.911  221.887  225.269  223.490  222.537  222.624  221.570  221.860  222.269  222.297  223.681  223.509  223.363  220.647  223.774  223.919  221.900  223.644  223.112  224.779  223.247  222.622  224.507  221.938  224.455  223.762  225.436  224.831  225.149  227.299  228.647  236.393  237.490  246.146  258.580  271.266  272.150  272.641  270.359  271.079  267.948  264.298  260.208  257.011  253.458  251.061  248.182  243.992  243.722  242.277  244.157  246.555  245.287  248.847  252.426  257.198  259.387  258.113  257.525  258.659  256.143  253.566  252.164  248.105  248.197  245.951  241.153  241.043  239.537  236.151  232.825  231.124  231.089  229.277  229.730  226.844  225.253  225.872  226.660  225.951  227.309  227.747  225.542  227.562  227.610  227.562  228.626  226.809  227.721  226.729  225.576  226.562  226.058  226.362  224.724  224.125  223.902  224.387  223.460  225.064  223.687  222.146  221.685  222.420  222.192  222.596  223.377  222.397  222.742  223.955  222.961  220.287  222.334  220.647  221.108  221.921  223.749  222.279  222.911  222.043  223.516  224.471  223.727  221.625  222.697  223.454  223.016  222.715  223.857  224.224  224.066  223.349  223.211  224.661  220.793  223.296  221.567  224.600  222.280  221.804 
DATE 2017:067:17:19:54 obsn  44 az  33 el 47 freq_MHz  1420.4000 Tsys 213.599 Tant 14.751 vlsr   12.37 glat  0.107 glon 127.617 source G127.5 
Fstart 1419.397 fstop 1421.403 spacing 0.009375 bw    2.400 fbw    2.000 MHz nfreq 256 nsam 5242880 npoint 214 integ     5 sigma    0.944 bsw 0
Spectrum      5 integration periods
 226.039  226.109  225.777  225.394  224.347  223.330  222.796  224.274  224.352  226.206  223.823  222.246  223.535  223.836  222.291  222.942  224.855  223.183  222.185  223.100  223.417  224.317  222.078  223.154  225.406  223.634  224.835  225.369  223.558  223.307  223.755  222.566  222.902  219.782  221.411  221.724  222.925  223.228  222.576  223.287  221.371  221.780  222.677  223.178  222.338  222.704  221.480  223.012  221.228  222.226  223.696  222.389  220.564  222.656  221.176  221.482  220.651  224.036  221.447  221.523  221.734  223.125  224.440  223.124  221.540  223.247  222.225  222.303  225.413  223.965  223.305  227.362  223.641  221.225  221.560  221.228  223.423  221.138  220.440  221.814  221.584  220.146  221.357  222.309  223.228  222.321  221.012  222.303  222.545  224.661  222.740  222.872  221.929  221.575  219.576  220.469  221.534  223.365  221.369  223.083  222.675  222.752  224.357  226.900  230.528  235.087  243.016  252.208  262.715  272.841  272.062  269.796  267.315  267.793  263.655  260.869  257.279  253.276  251.782  246.679  242.291  240.611  241.542  242.730  244.209  245.905  246.325  246.196  248.712  249.559  251.021  250.401  249.809  250.687  251.799  247.788  247.704  246.005  243.476  241.234  238.733  239.419  235.184  233.489  231.871  230.864  228.301  227.633  226.617  224.977  225.717  225.218  224.489  225.625  223.989  227.321  225.636  225.013  226.694  228.706  227.315  225.948  224.273  225.775  223.674  224.320  223.645  223.025  223.469  223.489  221.959  221.752  220.254  220.728  220.682  222.089  219.609  219.386  221.389  222.169  221.197  220.409  220.156  219.814  220.301  218.168  220.872  220.705  220.740  221.031  221.048  221.371  219.603  220.373  220.362  219.585  220.840  221.195  220.958  220.818  222.783  221.219  220.460  222.818  222.466  220.532  220.983  219.116  220.721  221.250  221.150  220.751  221.096  221.922 
DATE 2017:067:17:20:15 obsn  45 az  34 el 45 freq_MHz  1420.4000 Tsys 213.599 Tant 15.942 vlsr   14.12 glat  0.114 glon 130.117 source G130.0 
Fstart 1419.397 fstop 1421.403 spacing 0.009375 bw    2.400 fbw    2.000 MHz nfreq 256 nsam 5242880 npoint 214 integ     7 sigma    0.862 bsw 0
Spectrum      6 integration periods
 227.582  227.531  227.213  225.815  224.901  224.402  225.917  224.577  225.096  225.810  224.454  226.086  224.310  226.008  224.964  226.880  226.180  223.814  224.443  223.664  225.009  224.635  225.050  224.212  224.087  223.797  225.992  224.420  224.107  224.863  224.812  223.881  224.749  223.316  223.910  222.827  225.291  225.194  223.855  223.857  223.502  224.627  223.495  223.140  223.215  222.948  223.666  223.825  224.665  223.938  223.274  224.584  223.016  224.512  224.026  224.705  224.148  222.881  222.637  224.106  223.174  224.058  224.971  223.007  222.034  222.273  224.842  223.086  228.446  224.264  228.567  226.256  223.405  224.622  221.448  223.088  223.626  222.446  222.857  223.465  223.284  223.247  221.476  222.360  222.295  224.306  222.497  222.422  222.388  224.085  225.078  223.024  222.736  221.810  223.646  224.202  224.718  224.204  223.131  224.257  224.445  225.690  226.073  231.397  235.531  239.603  247.342  258.501  270.579  275.856  273.742  271.868  270.527  269.142  264.099  258.517  254.288  249.494  245.897  243.674  241.173  239.859  239.919  244.360  245.851  245.971  249.065  250.281  252.225  253.520  252.653  251.710  251.725  250.326  250.217  249.620  248.608  248.008  243.483  243.184  241.590  241.092  236.441  233.681  233.430  229.530  227.858  226.852  226.501  225.100  226.211  225.598  226.967  223.968  227.310  227.425  226.194  227.406  228.027  227.488  226.111  224.769  225.062  224.017  224.385  223.295  222.767  221.349  220.919  221.658  220.746  220.725  219.641  219.163  221.049  220.625  219.989  219.634  220.838  218.824  220.420  219.765  219.296  220.443  219.346  220.177  219.833  218.602  218.702  220.000  218.852  219.320  219.183  218.497  218.709  217.543  219.702  218.870  219.251  217.688  220.815  219.218  218.550  219.685  218.739  219.064  219.324  219.492  218.309  219.237  218.544  219.198  217.303  219.756 
DATE 2017:067:17:20:37 obsn  46 az  36 el 43 freq_MHz  1420.4000 Tsys 213.599 Tant 21.349 vlsr   15.85 glat  0.122 glon 132.617 source G132.5 
Fstart 1419.397 fstop 1421.403 spacing 0.009375 bw    2.400 fbw    2.000 MHz nfreq 256 nsam 5242880 npoint 214 integ     7 sigma    0.862 bsw 0
Spectrum      6 integration periods
 231.318  230.341  231.952  230.783  231.681  229.425  229.209  230.441  228.935  229.272  227.947  227.700  228.966  229.963  229.305  229.340  229.184  229.013  229.369  230.716  228.177  228.497  229.083  228.450  228.979  228.374  228.889  229.624  229.538  229.885  228.457  228.847  228.465  229.289  228.153  229.276  228.516  228.214  227.382  228.868  227.342  228.700  228.302  231.177  227.091  228.473  229.041  229.136  228.935  229.996  230.147  229.315  230.658  228.527  229.818  229.133  229.448  227.231  228.718  229.326  228.460  227.439  229.001  227.347  227.861  226.554  227.770  228.176  232.419  227.661  231.813  229.389  229.096  230.496  228.147  228.637  228.195  227.145  226.661  227.914  228.608  229.763  227.610  228.029  228.911  227.217  227.984  228.301  229.493  230.050  228.939  229.676  228.711  231.223  229.682  227.867  229.060  229.283  229.686  229.596  230.467  231.732  236.428  238.089  245.612  252.503  261.789  269.985  277.663  281.259  279.451  274.989  273.249  271.826  265.807  259.022  254.166  249.529  247.499  243.123  245.009  243.273  244.941  247.728  249.274  251.795  253.199  255.810  257.697  258.462  259.487  259.803  255.471  258.809  255.217  256.626  255.027  251.315  247.591  247.832  241.377  238.551  236.986  236.872  236.550  234.754  232.570  234.037  233.226  233.417  231.259  231.558  233.343  232.575  232.759  233.398  234.705  232.328  232.801  230.926  229.967  229.780  230.190  229.618  227.519  229.147  226.840  227.017  226.727  226.548  226.555  225.802  226.239  225.142  224.997  225.103  225.610  225.405  224.689  223.892  223.545  225.457  226.074  225.678  224.228  225.432  226.009  222.685  223.634  224.353  224.164  225.585  224.023  225.207  224.199  224.159  223.504  224.481  224.847  225.216  224.796  224.054  224.738  225.141  225.185  224.052  224.889  225.245  224.034  223.744  222.836  222.862  224.092  224.074 
DATE 2017:067:17:20:58 obsn  47 az  37 el 40 freq_MHz  1420.4000 Tsys 213.599 Tant 20.950 vlsr   17.54 glat  0.129 glon 135.117 source G135.0 
Fstart 1419.397 fstop 1421.403 spacing 0.009375 bw    2.400 fbw    2.000 MHz nfreq 256 nsam 5242880 npoint 214 integ     8 sigma    0.798 bsw 0
Spectrum      7 integration periods
 227.403  228.328  225.807  227.424  226.855  226.709  226.296  226.422  227.738  226.299  226.434  227.328  225.107  227.206  226.220  225.272  227.658  225.924  225.636  225.878  227.308  226.020  226.727  225.382  226.922  226.782  228.180  226.365  228.220  225.152  226.610  227.885  225.369  227.005  227.222  228.173  226.359  227.648  225.896  227.447  224.776  227.320  226.402  228.233  226.649  226.292  227.165  228.710  226.603  225.972  225.992  227.252  226.437  226.172  227.630  226.555  227.826  228.474  227.160  226.016  227.937  226.795  227.413  226.191  226.438  225.312  226.315  227.442  230.370  227.976  225.413  228.045  227.379  226.877  226.054  226.705  227.298  225.977  227.576  227.204  226.753  227.840  228.360  228.573  226.206  226.157  228.770  226.767  227.465  229.355  228.942  227.828  227.471  228.947  227.638  227.986  228.421  230.069  228.031  229.131  230.050  232.680  238.033  244.017  253.449  262.291  267.737  273.408  275.514  280.160  275.097  270.550  266.360  264.044  258.012  253.603  251.020  247.226  245.691  245.074  245.171  246.624  247.344  250.799  255.915  256.032  259.088  262.908  266.570  262.711  263.214  262.335  263.177  263.575  262.510  260.097  254.128  250.315  245.720  244.120  240.424  237.514  236.100  236.931  236.536  235.125  234.580  236.126  235.007  234.278  235.866  233.558  235.020  234.512  235.431  237.572  233.957  232.871  233.018  231.216  230.760  230.882  230.288  229.272  227.981  226.206  228.801  227.966  226.586  227.679  227.210  227.637  227.289  227.860  227.397  227.298  226.878  228.162  224.792  227.222  227.121  226.064  227.620  227.009  226.528  226.482  225.154  226.813  226.490  225.972  226.796  225.404  226.017  224.071  226.225  227.103  225.833  227.552  227.228  225.952  226.346  225.623  227.764  227.475  224.874  226.762  226.010  226.353  225.262  225.961  226.205  225.773  226.369  226.481 
DATE 2017:067:17:21:19 obsn  48 az  38 el 38 freq_MHz  1420.4000 Tsys 213.599 Tant 18.510 vlsr   19.21 glat  0.136 glon 137.617 source G137.5 
Fstart 1419.397 fstop 1421.403 spacing 0.009375 bw    2.400 fbw    2.000 MHz nfreq 256 nsam 5242880 npoint 214 integ     8 sigma    0.798 bsw 0
Spectrum      7 integration periods
 225.811  224.301  226.415  226.555  224.156  224.931  225.007  225.289  225.213  224.137  222.840  224.661  223.422  223.803  224.138  224.447  224.555  223.974  223.843  223.283  223.228  224.097  226.011  225.103  226.427  224.619  222.687  223.682  223.548  222.354  224.708  225.234  224.060  223.530  222.595  224.199  224.534  224.073  222.947  223.216  223.231  223.623  223.643  224.804  223.490  224.898  223.865  223.488  224.852  224.023  223.606  224.857  224.081  223.334  224.433  224.123  224.636  224.999  225.475  223.203  224.604  224.355  223.872  222.741  222.243  225.099  224.151  223.537  223.967  223.878  223.508  237.419  224.764  224.421  223.246  224.755  224.198  225.023  223.424  223.992  223.241  223.152  224.331  223.830  225.396  224.488  224.008  225.325  225.366  224.782  225.801  223.645  225.064  225.304  224.355  224.820  225.708  226.233  226.661  227.940  231.146  234.070  242.088  249.504  260.558  266.881  270.138  273.409  273.242  271.741  268.491  263.650  260.227  256.611  253.400  248.929  244.872  243.586  241.945  243.972  244.047  245.989  249.995  253.247  257.851  258.140  261.011  262.897  262.823  263.492  262.348  262.426  261.458  261.294  257.666  253.438  249.430  245.210  241.285  239.056  236.215  234.342  234.352  232.872  230.924  230.987  233.046  232.707  232.253  232.174  231.953  231.676  232.761  232.876  232.432  232.180  231.121  227.737  228.361  227.506  225.809  226.780  226.522  226.278  226.919  226.168  225.495  224.559  224.686  225.965  223.647  224.932  224.140  224.316  223.190  223.611  224.237  224.472  223.393  223.290  225.041  224.404  224.766  225.528  223.552  223.676  223.416  225.463  225.073  223.507  223.705  224.868  224.547  223.630  223.493  222.843  224.676  223.745  224.867  224.575  225.607  223.638  223.134  223.328  226.211  224.065  223.763  224.480  223.610  224.849  223.259  223.745  224.551  225.341 
DATE 2017:067:17:21:40 obsn  49 az  39 el 36 freq_MHz  1420.4000 Tsys 213.599 Tant 17.217 vlsr   20.83 glat  0.142 glon 140.117 source G140.0 
Fstart 1419.397 fstop 1421.403 spacing 0.009375 bw    2.400 fbw    2.000 MHz nfreq 256 nsam 5242880 npoint 214 integ     9 sigma    0.746 bsw 0
Spectrum      8 integration periods
 226.083  225.663  225.156  225.959  224.359  224.557  225.104  224.781  223.870  223.811  224.082  224.252  222.795  222.447  223.764  224.297  225.605  223.037  223.677  223.907  222.907  224.577  223.605  223.774  226.169  224.275  225.998  223.848  223.487  225.065  222.878  224.045  224.103  223.258  223.619  222.751  223.539  224.193  223.924  223.902  223.363  224.739  224.163  223.530  223.100  222.935  223.901  222.043  222.579  223.827  223.179  223.697  223.859  224.920  223.071  222.803  221.853  223.159  223.113  223.923  223.046  222.426  222.793  224.393  224.616  223.938  224.863  223.850  225.494  223.893  226.972  240.574  223.290  223.067  223.210  224.502  223.326  222.761  223.846  223.412  223.750  223.375  221.579  222.778  224.063  223.784  224.575  225.074  222.770  223.174  222.472  224.206  221.671  223.997  224.093  223.059  224.958  225.247  224.894  228.460  233.328  242.469  248.871  258.245  266.841  269.242  271.329  272.808  272.953  272.283  266.480  262.329  256.928  252.963  248.982  245.080  243.753  243.851  243.691  244.253  247.935  250.631  251.212  254.993  256.626  260.443  260.499  262.500  261.096  260.009  260.160  257.321  252.809  252.138  248.166  246.052  241.666  237.340  234.535  233.461  231.790  232.472  231.684  231.232  230.098  229.073  229.358  230.036  228.092  229.695  228.739  229.370  230.650  229.955  230.015  229.219  226.749  225.506  224.507  223.796  225.254  223.625  222.451  222.222  221.637  220.941  222.033  221.642  221.532  223.339  221.413  222.361  223.555  221.121  223.506  220.128  222.475  221.121  221.782  222.383  222.369  221.960  223.566  221.719  221.685  220.941  220.845  222.614  221.037  221.889  221.524  221.860  221.714  221.484  222.865  221.588  221.639  222.698  222.066  222.908  222.100  221.502  221.460  222.334  222.374  222.363  222.545  222.153  221.815  221.829  220.956  221.732  220.851  222.106 
DATE 2017:067:17:22:01 obsn  50 az  40 el 33 freq_MHz  1420.4000 Tsys 213.599 Tant 19.015 vlsr   22.42 glat  0.149 glon 142.617 source G142.5 
Fstart 1419.397 fstop 1421.403 spacing 0.009375 bw    2.400 fbw    2.000 MHz nfreq 256 nsam 5242880 npoint 214 integ     9 sigma    0.746 bsw 0
Spectrum      8 integration periods
 227.559  226.874  225.732  225.917  225.874  227.044  224.767  226.072  225.658  225.458  224.896  223.786  225.602  225.444  225.493  225.431  225.393  224.768  224.299  225.033  224.989  225.108  224.426  226.322  226.384  226.179  224.447  224.682  224.696  225.279  226.178  226.284  223.734  224.219  224.820  224.954  223.165  224.187  226.159  224.895  224.917  226.207  225.400  225.131  223.662  225.336  224.952  225.796  225.908  224.675  225.730  224.672  224.685  225.232  225.357  224.610  224.779  226.556  224.943  224.897  224.475  224.239  225.043  226.032  224.410  225.513  225.372  224.961  227.616  225.853  223.934  228.582  225.221  224.936  224.137  225.764  225.056  224.545  225.597  223.321  224.733  224.285  223.406  225.157  225.490  224.606  224.593  225.656  225.422  225.477  225.170  224.271  224.720  225.870  224.533  226.414  225.550  227.515  230.867  237.275  248.907  259.772  269.042  271.953  274.638  275.199  274.148  275.317  272.155  271.591  269.869  263.025  256.409  251.956  250.266  249.809  248.298  249.014  251.574  252.969  257.972  259.772  262.006  263.732  265.959  264.653  262.189  263.895  259.617  256.786  255.175  252.521  248.498  243.456  241.243  237.842  234.126  234.386  230.755  232.016  233.310  232.068  232.101  231.358  230.790  231.822  230.760  231.883  232.329  230.965  230.621  231.522  230.122  230.746  229.518  228.350  225.881  225.466  224.216  225.181  224.831  223.648  224.962  224.168  223.014  224.385  223.318  223.859  224.117  224.500  222.478  224.158  222.190  224.227  222.835  225.091  223.335  223.293  223.219  223.140  222.296  222.092  224.854  223.045  222.429  222.615  221.692  224.059  222.277  220.694  222.061  221.567  222.566  222.589  222.927  221.815  222.213  223.589  223.098  223.729  221.976  223.163  223.797  224.527  223.755  224.199  223.233  222.252  222.781  222.449  223.702  222.836  222.261  222.886 
DATE 2017:067:17:22:22 obsn  51 az  41 el 31 freq_MHz  1420.4000 Tsys 213.599 Tant 18.459 vlsr   23.96 glat  0.155 glon 145.117 source G145.0 
Fstart 1419.397 fstop 1421.403 spacing 0.009375 bw    2.400 fbw    2.000 MHz nfreq 256 nsam 5242880 npoint 214 integ    10 sigma    0.704 bsw 0
Spectrum      9 integration periods
 225.130  224.802  225.219  225.053  224.952  223.409  222.741  225.081  224.456  224.544  223.369  224.003  224.224  223.771  224.482  224.611  224.003  224.032  223.814  224.863  223.554  223.481  224.454  224.679  225.170  223.691  223.966  223.580  223.945  223.105  224.011  223.582  223.658  223.374  222.848  223.235  222.979  223.866  223.454  224.013  224.223  222.510  223.531  223.072  223.792  224.013  223.456  224.090  222.427  222.968  223.162  223.485  223.396  222.957  224.747  223.792  223.807  224.796  223.477  224.203  223.307  223.137  224.605  224.134  224.451  224.347  224.300  224.314  234.751  233.557  224.546  226.630  225.301  222.762  222.791  223.620  224.092  222.407  223.760  221.653  224.137  223.116  223.982  223.763  224.002  225.233  223.325  224.304  224.463  226.568  224.313  223.660  224.570  224.407  224.847  224.630  227.245  229.472  235.065  243.232  256.968  269.794  274.128  275.575  273.652  274.375  273.594  272.759  271.282  271.403  269.554  264.084  257.761  254.736  253.316  250.765  252.628  255.997  258.445  261.458  264.581  266.968  266.372  265.372  266.128  261.658  261.697  257.473  254.149  249.661  247.705  245.113  240.610  238.965  235.293  234.838  232.417  231.974  232.725  233.072  231.933  231.338  234.604  232.897  231.935  230.768  232.056  231.533  231.239  230.057  229.043  228.730  228.492  228.368  227.003  226.051  225.105  225.170  224.954  224.987  224.800  223.356  223.808  224.292  225.476  224.182  223.885  222.991  223.709  224.121  223.358  223.910  224.102  223.061  221.988  223.054  224.637  223.470  222.880  222.009  222.864  221.938  221.567  222.085  223.103  223.163  222.952  222.468  223.158  222.531  221.480  223.336  222.836  223.958  223.222  222.977  224.654  223.397  224.255  223.022  224.742  224.350  222.576  221.917  222.720  222.953  223.913  222.530  222.963  221.852  221.524  221.795  222.374  224.091 
DATE 2017:067:17:22:44 obsn  52 az  42 el 29 freq_MHz  1420.4000 Tsys 213.599 Tant 18.718 vlsr   25.46 glat  0.161 glon 147.617 source G147.5 
Fstart 1419.397 fstop 1421.403 spacing 0.009375 bw    2.400 fbw    2.000 MHz nfreq 256 nsam 5242880 npoint 214 integ    10 sigma    0.704 bsw 0
Spectrum      9 integration periods
 224.841  224.650  225.015  225.030  225.189  224.034  225.176  223.537  221.572  224.078  222.997  223.445  225.459  223.644  223.597  222.975  223.554  222.026  223.775  224.563  225.432  222.880  222.492  222.497  225.555  223.362  224.741  223.256  223.977  223.499  224.133  224.121  223.289  224.053  222.864  223.799  223.425  222.229  223.392  224.376  223.019  223.396  223.744  224.157  223.287  222.933  222.463  223.189  224.189  222.774  223.805  222.583  224.616  224.461  224.192  223.243  223.685  222.985  224.198  223.197  223.222  222.674  224.148  224.282  223.603  225.042  223.602  223.867  241.079  243.181  225.227  229.342  224.409  223.314  224.782  223.676  223.033  224.195  223.313  223.704  222.976  223.720  222.355  223.577  224.412  223.524  223.196  224.379  224.215  226.783  224.064  224.048  223.480  225.465  226.506  225.598  229.130  233.272  240.815  252.508  266.560  277.061  281.251  276.675  274.382  274.441  268.263  268.270  270.057  273.002  271.812  265.669  260.096  257.150  256.826  259.785  261.656  265.536  267.582  268.503  268.237  265.894  266.252  263.411  260.061  257.921  253.257  249.550  246.234  245.492  241.457  241.009  237.660  235.207  233.448  231.890  232.270  232.810  233.810  232.667  233.973  233.199  232.592  232.420  229.751  229.892  228.681  229.299  229.303  228.289  227.151  225.478  225.722  225.649  224.144  225.095  223.943  224.638  223.654  224.109  223.715  222.829  223.968  223.347  223.379  223.691  223.478  225.355  223.171  223.065  223.974  224.613  222.094  223.236  224.311  222.489  222.581  222.258  223.302  223.331  223.242  222.172  223.619  222.364  221.557  220.885  222.576  223.275  221.811  222.925  223.084  222.002  222.625  223.515  223.598  223.850  222.257  223.229  222.841  222.979  223.193  223.073  223.778  223.967  224.583  224.006  223.886  222.601  222.895  221.568  222.504  222.216  221.740  223.372 
DATE 2017:067:17:23:05 obsn  53 az  43 el 26 freq_MHz  1420.4000 Tsys 213.599 Tant 18.331 vlsr   26.91 glat  0.166 glon 150.117 source G150.0 
Fstart 1419.397 fstop 1421.403 spacing 0.009375 bw    2.400 fbw    2.000 MHz nfreq 256 nsam 5242880 npoint 214 integ    11 sigma    0.667 bsw 0
Spectrum     10 integration periods
 226.260  225.294  224.880  224.797  224.391  225.018  224.596  222.852  223.905  223.914  225.066  225.314  224.276  224.323  223.468  223.828  225.027  224.690  223.988  222.940  224.610  223.389  223.835  225.311  224.825  224.080  224.399  223.461  225.072  223.221  223.837  223.800  223.877  224.463  224.365  223.627  222.482  223.707  223.165  223.445  223.074  224.252  223.056  224.180  223.165  224.765  223.508  223.903  224.427  223.627  223.900  223.797  222.715  223.315  224.193  223.699  223.307  223.705  223.376  223.147  223.588  222.979  223.626  222.808  223.456  224.101  223.959  229.728  230.063  231.041  222.882  225.982  224.063  223.551  222.365  222.922  224.008  223.583  222.784  222.957  223.595  223.655  223.365  222.762  223.709  223.447  223.939  223.011  222.382  225.904  224.890  224.937  223.722  225.652  225.871  229.254  234.140  245.037  254.893  265.243  277.863  282.627  281.250  277.157  272.757  269.900  269.574  270.540  272.263  271.135  271.454  268.445  265.839  268.372  270.457  273.986  277.629  278.312  277.567  274.630  270.394  264.708  259.855  257.123  252.918  249.658  247.331  245.324  243.573  241.709  239.461  237.803  235.177  234.103  232.635  233.705  234.421  234.463  234.029  233.453  234.216  231.015  228.973  228.686  227.637  227.151  225.916  225.478  225.804  225.648  225.538  222.205  224.084  224.490  223.509  222.964  222.995  223.240  223.193  223.596  222.677  221.998  221.123  223.175  221.374  222.822  223.688  223.727  222.692  223.753  222.191  222.854  222.229  222.203  221.628  222.934  221.569  221.653  220.418  221.125  221.833  222.508  221.910  221.982  222.513  222.391  220.768  222.314  221.042  221.679  220.935  221.683  222.031  222.684  220.339  222.488  221.841  222.795  222.240  222.399  222.107  221.927  220.901  223.149  223.076  221.888  223.547  222.688  220.440  220.679  221.244  221.465  219.567  221.489 
