DATE 2017:064:01:56:42 obsn   0 az 159 el 32 freq_MHz  1420.4000 Tsys 171.000 Tant 20.341 vlsr   33.86 glat  0.136 glon 235.118 source G235.0 
Fstart 1419.397 fstop 1421.403 spacing 0.009375 bw    2.400 fbw    2.000 MHz nfreq 256 nsam 5242880 npoint 214 integ     1 sigma    1.690 bsw 0
Spectrum      1 integration periods
 192.230  193.769  197.504  196.377  196.350  193.732  193.873  191.940  194.109  188.376  188.713  190.895  188.729  189.720  189.425  196.434  194.322  191.239  194.520  196.688  195.934  196.386  196.636  200.707  197.272  196.813  199.253  197.894  202.474  195.954  195.160  195.127  195.464  196.057  195.409  194.598  192.259  199.829  194.395  195.775  194.089  198.725  194.421  195.546  195.526  192.272  200.723  199.877  199.695  202.457  208.671  209.830  215.341  217.036  219.527  216.484  213.520  211.686  215.627  212.740  212.957  220.550  225.251  220.758  214.403  217.144  212.088  207.579  217.715  230.187  228.517  208.937  195.154  193.044  191.467  197.342  192.648  192.097  189.493  189.849  194.864  201.339  204.374  213.635  228.119  234.220  243.920  238.732  240.991  225.818  215.372  207.384  201.696  196.543  195.909  196.112  197.610  193.124  190.091  186.358  187.340  185.505  184.829  182.477  184.460  187.941  178.344  183.990  181.611  186.346  180.375  180.171  181.305  183.808  180.081  180.003  177.433  179.397  186.626  179.412  183.806  183.140  181.998  179.991  178.577  180.987  182.015  178.685  175.210  179.821  184.237  181.821  178.458  179.658  180.167  180.519  178.273  178.419  179.114  184.452  176.293  180.108  183.462  181.696  179.107  179.956  181.077  180.621  183.199  182.848  178.381  180.430  189.509  181.154  180.538  177.569  179.369  182.766  180.043  179.895  188.464  178.114  182.152  181.096  180.517  179.551  182.624  178.393  180.587  181.959  179.370  178.568  180.059  181.984  180.450  180.706  180.013  176.464  178.587  177.295  179.559  178.836  183.349  178.687  179.683  178.226  178.730  176.163  181.776  180.880  183.864  178.928  179.403  179.275  183.697  183.773  182.521  176.856  182.413  182.903  183.728  180.445  181.685  187.703  180.908  180.568  177.680  182.081  179.713  180.431  179.087  183.538  176.895  174.446 
DATE 2017:064:01:57:05 obsn   1 az 160 el 37 freq_MHz  1420.4000 Tsys 171.000 Tant 18.798 vlsr   35.84 glat  0.149 glon 230.118 source G230.0 
Fstart 1419.397 fstop 1421.403 spacing 0.009375 bw    2.400 fbw    2.000 MHz nfreq 256 nsam 5242880 npoint 214 integ     4 sigma    0.845 bsw 0
Spectrum      4 integration periods
 190.781  192.433  194.415  197.621  192.993  192.535  190.853  190.528  188.011  189.085  189.473  187.457  188.844  187.276  189.976  193.711  193.564  191.026  191.567  191.952  196.601  193.571  194.039  196.149  195.346  197.706  195.200  195.219  202.822  196.972  194.055  195.901  194.691  193.301  192.523  191.614  191.355  193.221  190.666  191.474  189.241  192.713  187.998  189.234  188.222  189.686  190.768  191.601  190.820  195.666  200.240  198.656  199.524  204.177  210.563  210.703  214.236  217.718  223.747  222.805  220.142  218.071  221.498  215.171  215.018  214.704  213.586  218.422  229.539  244.813  232.119  231.274  222.194  220.897  221.054  222.867  212.477  208.184  206.962  209.878  216.516  222.484  228.101  234.119  238.431  232.708  229.605  222.644  214.269  205.498  202.228  200.541  203.665  205.565  206.081  200.481  200.346  190.523  188.112  184.036  182.892  183.172  184.191  182.254  182.115  186.372  181.366  180.940  180.156  183.073  181.197  179.688  179.665  180.467  180.636  179.876  177.307  177.192  183.447  179.246  177.596  179.294  179.885  179.562  178.265  177.189  179.540  177.379  178.636  178.008  179.420  178.883  179.797  179.993  179.712  178.172  177.806  178.775  178.102  182.703  178.945  178.393  178.841  179.278  179.215  179.316  180.091  180.833  182.271  181.041  179.563  180.456  185.053  179.585  180.647  181.608  180.255  179.836  180.700  180.698  185.868  181.055  180.807  180.576  180.763  182.244  180.639  179.556  178.921  180.378  179.906  179.372  179.108  183.652  179.758  177.548  176.721  179.689  179.333  178.320  178.946  178.447  182.410  177.418  177.861  179.118  178.528  179.823  177.673  179.208  179.634  179.385  179.785  179.695  181.680  180.697  179.644  181.833  184.179  181.453  181.667  180.378  181.740  185.366  179.979  179.953  180.754  178.958  178.592  176.869  176.952  176.994  174.232  172.438 
DATE 2017:064:01:57:29 obsn   2 az 162 el 42 freq_MHz  1420.4000 Tsys 171.000 Tant 47.551 vlsr   37.54 glat  0.160 glon 225.118 source G225.0 
Fstart 1419.397 fstop 1421.403 spacing 0.009375 bw    2.400 fbw    2.000 MHz nfreq 256 nsam 5242880 npoint 214 integ     8 sigma    0.639 bsw 0
Spectrum      7 integration periods
 210.136  213.998  215.247  213.689  213.399  210.388  210.290  209.954  206.729  207.722  207.517  208.318  207.516  207.418  208.160  209.210  209.719  211.398  211.574  213.758  213.664  215.022  214.757  215.617  214.106  215.358  216.334  216.817  217.188  215.057  213.593  213.716  214.613  212.654  212.474  210.845  210.004  210.198  209.039  208.957  207.734  208.164  206.508  206.747  205.793  206.317  205.347  206.107  206.468  205.273  209.274  209.768  209.642  214.965  216.020  219.339  223.276  225.190  229.140  233.030  233.155  231.427  230.725  232.433  227.626  227.282  225.487  225.972  237.497  244.503  240.208  232.920  229.122  232.091  233.250  233.342  229.166  224.808  222.981  224.266  225.322  228.917  233.081  243.276  250.886  253.327  251.835  245.042  235.820  226.436  222.430  222.209  225.956  226.796  221.544  214.567  210.523  205.885  203.921  204.112  203.050  201.794  201.828  201.615  201.425  202.825  199.440  199.036  199.438  200.618  198.934  199.153  199.471  198.744  197.561  197.975  197.160  198.272  199.047  197.660  198.302  197.111  196.337  196.076  196.927  195.897  197.464  196.915  196.340  197.387  198.867  197.596  196.682  196.889  196.759  196.996  198.046  199.533  196.978  198.924  198.043  197.539  198.222  198.452  198.307  198.293  198.282  200.365  200.300  198.321  199.265  199.290  201.001  198.186  197.805  200.108  198.601  199.576  199.543  200.684  201.275  200.149  198.846  199.679  199.423  200.215  199.107  199.865  197.902  199.412  197.457  197.723  197.877  199.506  198.696  195.899  197.527  198.344  196.466  196.231  196.630  196.776  198.416  197.551  195.744  196.512  197.057  197.572  198.280  198.643  198.531  198.006  197.935  199.238  200.045  198.436  199.318  200.634  200.936  199.758  200.722  200.755  201.163  202.091  200.543  199.811  201.223  198.173  198.361  196.217  195.269  193.700  192.353  190.564 
DATE 2017:064:01:58:09 obsn   3 az 165 el 52 freq_MHz  1420.4000 Tsys 171.000 Tant 23.184 vlsr   40.09 glat  0.180 glon 215.118 source G215.0 
Fstart 1419.397 fstop 1421.403 spacing 0.009375 bw    2.400 fbw    2.000 MHz nfreq 256 nsam 5242880 npoint 214 integ     3 sigma    0.976 bsw 0
Spectrum      3 integration periods
 194.795  198.146  199.124  199.489  197.461  195.496  195.740  196.033  192.472  193.968  192.653  192.268  192.913  192.399  193.639  193.552  196.147  194.839  195.208  196.733  196.906  197.313  199.286  198.129  200.533  199.571  199.274  200.977  200.554  199.230  197.715  196.601  198.737  198.306  197.145  195.836  192.853  195.627  192.181  192.971  188.744  194.194  189.544  192.635  191.133  188.583  187.218  187.192  189.110  188.051  188.493  186.460  188.800  188.546  192.653  189.231  191.576  194.344  200.001  200.886  203.575  209.583  217.875  228.650  231.876  239.070  241.175  243.536  240.213  237.428  239.747  231.744  222.808  218.045  217.761  221.700  226.791  233.946  236.565  239.549  235.889  233.309  227.847  229.975  233.696  233.999  234.995  234.326  228.108  222.817  215.008  207.603  200.923  195.238  191.923  192.432  190.867  187.292  187.481  187.408  184.721  186.180  185.697  185.185  185.833  187.365  182.725  185.964  184.462  185.467  183.581  183.479  181.924  184.268  182.148  183.761  182.831  182.563  185.064  181.833  180.944  181.556  182.857  183.331  181.394  180.146  179.533  180.388  180.416  182.877  181.061  181.622  180.133  181.362  182.401  181.431  181.368  180.111  181.275  181.951  182.288  181.467  180.692  182.241  181.480  182.126  182.410  183.258  182.495  182.970  182.552  185.269  186.579  181.735  184.653  183.088  182.888  183.883  182.326  183.793  183.551  183.981  183.221  183.623  183.964  183.502  184.664  184.635  184.925  183.117  181.202  181.373  182.447  181.546  181.432  182.061  182.108  180.108  181.831  181.684  180.606  181.124  181.357  181.778  181.197  181.953  182.831  183.060  181.767  180.982  183.628  182.013  182.780  181.548  184.447  183.339  185.724  184.801  184.749  183.961  184.115  184.005  186.004  184.146  182.473  181.777  181.903  182.948  180.555  181.280  181.339  178.187  178.758  175.146 
