* entered azoff 0.000000 eloff 0.000000
DATE 2017:094:10:28:23 obsn  60 az 174 el 17 freq_MHz  1420.4000 Tsys 145.521 Tant 40.812 vlsr  -34.71 glat -0.198 glon 350.117 azoff 0.00 eloff 0.00 source G350.0 
Fstart 1419.397 fstop 1421.403 spacing 0.009375 bw    2.400 fbw    2.000 MHz nfreq 256 nsam 5242880 npoint 214 integ     7 sigma    0.587 bsw 0
Spectrum      6 integration periods
 175.343  176.914  175.543  177.241  174.370  175.330  175.104  176.405  173.796  174.893  175.198  174.508  175.414  176.007  174.678  177.220  178.299  173.979  174.884  175.606  176.868  175.312  177.104  174.763  176.070  174.844  175.053  175.287  179.547  175.633  174.471  173.441  175.068  175.548  173.735  173.682  173.578  175.563  173.348  174.459  175.282  178.780  173.100  172.530  173.962  175.431  174.130  174.777  174.391  173.888  178.180  173.816  174.888  173.099  175.611  174.187  177.984  174.566  175.379  174.468  174.865  174.333  179.982  178.139  173.529  173.430  173.802  175.110  176.341  175.755  191.191  181.960  173.780  175.424  174.349  177.634  174.375  175.250  173.260  174.413  175.132  173.869  174.375  175.999  177.754  173.871  175.429  175.249  176.334  175.772  175.092  175.043  175.900  174.559  174.345  175.919  179.783  175.150  175.523  175.367  175.903  174.850  175.183  178.766  176.440  179.970  176.118  176.774  178.873  181.349  179.321  179.671  179.155  182.423  182.023  182.377  182.778  183.045  187.997  184.928  185.985  188.596  191.758  193.706  198.600  202.716  209.391  211.691  216.324  217.912  222.185  221.414  215.622  215.282  216.137  211.597  208.750  206.388  205.373  207.389  201.055  199.150  199.907  196.785  195.915  194.403  190.578  190.340  190.123  187.209  185.617  183.214  186.215  182.014  181.440  182.933  181.382  180.274  180.916  180.460  185.217  179.366  178.931  180.775  179.352  180.216  178.633  178.057  177.526  179.429  177.292  176.523  177.693  181.946  177.284  177.046  178.258  176.113  176.444  177.721  176.946  178.032  181.651  178.778  177.500  178.730  178.624  177.161  177.689  175.980  178.592  176.322  175.391  175.559  180.229  176.757  175.846  175.953  173.843  175.473  174.095  175.431  174.966  178.221  175.849  174.322  174.548  175.300  174.103  175.553  174.535  177.580  175.487  174.478 
DATE 2017:094:10:28:36 obsn  61 az 174 el 17 freq_MHz  1420.4000 Tsys 145.521 Tant 39.419 vlsr  -34.71 glat -0.198 glon 350.117 azoff 0.00 eloff 0.00 source G350.0 
Fstart 1419.397 fstop 1421.403 spacing 0.009375 bw    2.400 fbw    2.000 MHz nfreq 256 nsam 5242880 npoint 214 integ    17 sigma    0.360 bsw 0
Spectrum     16 integration periods
 177.530  178.228  177.739  180.366  177.853  178.141  177.028  180.039  176.593  176.790  176.974  176.877  177.230  177.636  177.434  180.127  180.984  176.197  176.865  177.277  178.696  177.439  178.669  176.999  178.383  177.739  177.348  177.308  182.364  177.757  177.170  176.702  177.388  177.285  176.392  175.807  176.049  178.619  176.354  175.954  177.195  180.349  175.580  175.716  176.367  176.477  176.277  177.133  176.973  176.751  180.928  175.996  177.008  175.926  178.508  176.462  178.231  176.378  177.072  176.735  176.920  176.339  181.614  181.787  177.137  175.963  176.797  177.315  177.873  178.251  192.416  185.446  176.491  177.380  176.588  180.158  176.440  176.757  176.085  176.215  176.716  176.086  176.137  177.800  180.124  176.370  176.703  176.876  178.961  177.643  177.220  176.838  178.258  176.589  177.054  177.094  181.759  177.189  176.880  177.425  177.882  177.620  177.058  180.127  178.588  182.632  178.656  179.710  181.132  184.190  181.745  182.406  182.446  184.858  184.455  184.552  185.183  186.359  191.282  187.659  188.980  192.436  195.705  198.457  203.419  208.515  215.071  218.872  224.385  227.083  230.201  229.578  224.401  221.102  221.173  217.449  215.278  212.922  210.967  213.003  206.638  205.081  203.711  203.301  200.699  198.828  196.789  195.008  194.861  191.018  188.780  187.120  190.529  184.772  184.399  185.826  184.349  183.706  183.402  183.862  188.111  182.068  181.888  182.669  181.754  182.659  181.449  180.036  180.151  181.952  180.159  180.004  180.635  185.255  180.727  180.770  180.763  179.790  180.045  179.881  179.662  179.829  184.524  180.299  179.895  180.821  181.790  179.802  179.968  178.991  181.444  178.448  178.395  177.508  181.678  178.324  178.243  177.383  176.343  177.853  176.534  177.097  177.117  180.725  177.313  176.439  176.117  177.403  177.268  177.144  177.147  179.656  177.889  176.476 
* entered azoff 0.000000 eloff 0.000000
DATE 2017:094:10:28:57 obsn  62 az 172 el 19 freq_MHz  1420.4000 Tsys 145.521 Tant 35.429 vlsr  -35.90 glat -0.200 glon 352.617 azoff 0.00 eloff 0.00 source G352.5 
Fstart 1419.397 fstop 1421.403 spacing 0.009375 bw    2.400 fbw    2.000 MHz nfreq 256 nsam 5242880 npoint 214 integ     8 sigma    0.544 bsw 0
Spectrum      7 integration periods
 173.267  173.523  173.239  176.652  173.342  172.716  172.622  176.741  172.832  172.936  173.986  173.074  171.567  171.861  172.403  174.785  176.452  172.339  172.039  172.797  174.055  172.493  174.527  172.626  173.381  172.752  171.181  172.308  179.078  173.473  172.299  173.026  171.575  172.404  172.154  172.161  171.528  174.715  172.930  170.797  171.652  176.950  171.612  171.537  171.767  171.686  171.599  171.150  172.032  171.865  176.625  171.296  171.952  172.764  173.725  172.777  171.900  171.815  172.786  171.451  171.447  171.548  176.744  171.117  172.438  170.834  172.151  172.684  173.908  175.651  177.700  183.686  173.415  173.069  171.322  176.006  171.982  171.650  171.751  171.427  172.239  172.055  172.697  172.230  177.060  171.559  172.071  172.225  174.008  171.828  173.192  172.995  173.111  172.727  172.734  172.864  176.651  171.442  172.295  173.071  173.360  173.313  172.359  173.669  172.608  177.689  175.550  175.132  174.442  179.534  177.440  177.129  179.185  180.585  181.140  180.903  180.845  183.571  188.841  184.520  187.623  190.178  194.024  195.684  202.598  208.019  217.803  221.862  228.555  233.443  236.491  236.354  231.987  229.189  226.722  225.721  221.227  217.532  213.653  214.401  206.834  206.691  202.581  202.726  199.883  197.016  195.173  194.755  193.493  188.472  185.714  184.207  184.976  181.216  181.163  181.109  180.740  178.892  177.849  179.436  182.530  176.763  176.866  176.916  177.192  178.367  176.775  175.809  176.391  178.350  178.488  177.700  177.250  181.450  177.902  177.864  178.950  177.449  177.724  176.095  176.486  175.113  181.965  174.849  176.281  175.381  175.893  175.022  174.874  175.157  175.075  173.162  172.138  173.821  175.831  173.561  172.154  171.822  172.609  172.475  172.380  171.650  171.340  176.703  172.332  173.174  173.674  173.494  172.022  172.724  172.227  175.782  172.436  173.365 
DATE 2017:094:10:29:11 obsn  63 az 172 el 19 freq_MHz  1420.4000 Tsys 145.521 Tant 35.443 vlsr  -35.90 glat -0.200 glon 352.617 azoff 0.00 eloff 0.00 source G352.5 
Fstart 1419.397 fstop 1421.403 spacing 0.009375 bw    2.400 fbw    2.000 MHz nfreq 256 nsam 5242880 npoint 214 integ    19 sigma    0.349 bsw 0
Spectrum     17 integration periods
 174.038  173.996  173.330  177.148  173.011  173.128  173.040  176.469  172.846  172.387  173.066  173.154  171.871  172.023  172.655  175.612  176.567  172.161  172.581  173.414  174.234  172.717  174.706  172.747  173.851  172.260  172.190  172.366  178.843  172.513  172.169  172.217  172.144  172.498  172.485  172.124  171.632  175.012  171.958  171.467  171.617  176.720  171.406  171.266  172.016  172.295  171.507  171.154  172.062  171.730  176.574  171.642  171.762  172.203  174.650  172.317  171.783  171.637  173.071  171.980  171.236  171.137  176.830  171.521  172.428  171.489  171.820  172.910  173.295  175.552  182.331  184.009  173.650  172.148  171.486  176.141  171.959  172.139  171.638  171.350  171.879  171.604  172.157  171.910  176.495  171.911  172.263  172.254  173.785  172.218  172.272  172.264  173.231  172.691  172.783  172.786  177.745  172.275  172.331  172.715  173.306  173.392  172.454  173.747  173.417  177.441  174.761  175.119  175.049  179.403  177.279  177.777  178.853  179.943  181.394  180.318  180.932  183.415  188.773  185.418  187.829  190.803  193.893  196.249  202.444  208.331  218.570  221.851  228.775  233.988  236.981  236.143  231.311  228.749  227.496  225.003  221.110  217.618  213.831  215.626  206.884  206.203  202.799  202.489  199.482  197.152  194.936  194.243  193.360  188.459  186.370  184.214  186.550  181.239  180.844  181.357  180.734  179.120  178.531  179.012  182.499  176.917  176.864  177.145  177.033  178.268  176.443  176.132  176.437  178.983  177.670  177.110  177.049  182.360  178.080  178.278  177.912  177.648  177.240  176.572  176.623  175.629  181.855  175.442  175.808  175.394  176.197  174.498  174.876  174.826  175.769  173.461  172.787  173.203  176.524  173.027  172.485  172.375  172.969  172.322  172.671  172.517  172.185  177.236  172.681  172.716  173.492  173.587  172.607  172.554  172.277  175.830  172.819  172.842 
* entered azoff 0.000000 eloff 0.000000
DATE 2017:094:10:29:32 obsn  64 az 170 el 21 freq_MHz  1420.4000 Tsys 145.521 Tant 31.645 vlsr  -37.02 glat -0.202 glon 355.117 azoff 0.00 eloff 0.00 source G355.0 
Fstart 1419.397 fstop 1421.403 spacing 0.009375 bw    2.400 fbw    2.000 MHz nfreq 256 nsam 5242880 npoint 214 integ    10 sigma    0.479 bsw 0
Spectrum      9 integration periods
 170.298  170.427  169.710  175.905  168.500  168.865  169.882  175.707  168.878  168.965  169.152  169.270  168.787  168.944  169.476  175.240  177.399  167.839  169.397  168.610  173.252  169.563  170.278  169.130  170.823  168.406  169.364  168.881  179.127  169.291  169.252  168.434  169.774  169.832  168.936  168.084  168.472  173.976  168.237  169.069  167.860  176.316  168.370  168.698  168.380  169.177  168.927  169.324  168.381  169.135  178.116  169.240  168.727  168.585  173.425  168.422  169.102  169.131  170.132  169.079  168.302  168.939  177.848  169.612  168.354  169.103  168.547  170.470  171.786  173.733  174.980  188.236  169.752  169.881  169.082  176.204  168.820  169.157  169.002  169.842  169.258  169.965  169.615  170.283  178.412  170.364  169.670  171.017  174.007  169.928  170.918  170.715  172.233  169.992  169.319  168.993  179.577  169.830  169.539  170.918  170.214  169.965  170.218  170.054  170.851  178.689  171.150  171.732  172.066  178.752  172.280  173.922  173.795  176.241  175.716  176.592  178.389  180.034  189.733  182.502  186.054  187.614  192.520  195.376  200.861  208.000  220.324  222.179  226.332  231.106  239.869  243.798  233.599  232.230  228.115  223.695  219.481  214.765  210.102  214.445  202.725  199.696  198.040  197.671  192.938  190.515  188.289  186.891  187.984  183.210  182.595  180.250  186.742  177.121  176.382  176.828  176.058  174.107  175.195  173.901  182.687  173.970  174.103  174.439  174.468  176.940  176.788  176.057  177.081  179.932  176.524  176.561  176.292  183.385  177.657  175.252  174.939  174.683  174.294  174.333  173.639  173.382  181.118  170.441  172.277  171.009  172.814  171.993  170.888  171.192  173.612  171.142  169.918  170.590  176.519  170.139  170.159  169.821  169.815  170.664  170.251  171.601  170.882  177.663  170.506  170.026  171.072  172.409  171.032  170.889  169.954  175.037  170.725  170.428 
DATE 2017:094:10:29:53 obsn  65 az 169 el 23 freq_MHz  1420.4000 Tsys 145.521 Tant 32.130 vlsr  -38.07 glat -0.203 glon 357.617 azoff 0.00 eloff 0.00 source G357.5 
Fstart 1419.397 fstop 1421.403 spacing 0.009375 bw    2.400 fbw    2.000 MHz nfreq 256 nsam 5242880 npoint 214 integ     1 sigma    1.438 bsw 0
Spectrum      1 integration periods
 167.956  168.065  167.772  176.905  169.276  168.737  165.699  178.007  167.673  170.694  168.946  165.175  168.210  167.220  168.202  174.877  178.499  164.950  169.033  168.969  172.958  171.197  167.648  165.978  172.420  169.625  167.651  170.869  184.193  168.777  168.790  168.269  167.231  166.335  167.223  166.883  171.786  171.714  166.499  168.130  165.107  179.324  168.136  167.787  168.848  166.800  166.749  165.648  169.386  168.216  179.482  167.395  169.272  168.934  176.181  169.615  169.150  165.898  171.318  168.850  165.881  166.245  183.482  169.927  170.181  165.761  168.908  170.213  170.937  173.629  174.887  188.922  169.689  169.799  170.686  179.396  171.482  168.314  171.080  167.264  167.112  169.411  167.281  171.959  180.050  169.891  172.145  168.336  174.965  170.521  173.331  169.539  170.742  168.479  168.311  166.822  182.125  170.033  168.033  170.028  169.680  172.583  168.802  169.884  166.895  178.781  170.036  171.829  170.899  180.403  172.605  172.514  170.605  172.584  175.181  173.837  178.221  178.246  195.555  185.209  186.686  186.973  195.052  197.811  199.355  211.948  225.002  223.437  226.524  225.956  245.663  248.167  235.872  232.373  225.882  225.092  217.592  207.728  205.205  212.579  202.562  198.532  195.048  193.946  186.002  183.255  187.032  184.860  188.487  179.606  178.986  177.284  187.745  172.717  173.903  173.086  172.587  170.985  173.161  177.352  183.828  173.872  176.998  175.754  174.282  177.923  170.997  177.369  172.868  181.095  172.348  177.246  171.524  186.977  175.894  175.846  172.418  173.144  171.986  171.213  168.574  170.695  183.635  169.434  166.056  171.700  171.453  169.124  171.560  169.729  178.659  168.518  169.541  170.492  178.448  168.972  169.116  168.399  168.856  170.689  170.085  170.206  169.456  182.934  167.445  169.662  168.785  176.611  170.663  172.035  167.901  174.739  170.774  167.940 
* entered azoff 0.000000 eloff 0.000000
DATE 2017:094:10:30:06 obsn  66 az 169 el 23 freq_MHz  1420.4000 Tsys 145.521 Tant 32.720 vlsr  -38.07 glat -0.203 glon 357.617 azoff 0.00 eloff 0.00 source G357.5 
Fstart 1419.397 fstop 1421.403 spacing 0.009375 bw    2.400 fbw    2.000 MHz nfreq 256 nsam 5242880 npoint 214 integ    12 sigma    0.434 bsw 0
Spectrum     11 integration periods
 168.068  168.214  168.122  174.839  169.154  168.286  167.210  173.926  167.929  167.604  167.542  167.753  167.436  166.335  167.362  174.378  175.957  167.339  168.783  168.095  171.849  168.244  167.723  167.453  170.510  168.314  167.522  168.452  177.290  168.823  167.568  168.141  167.449  168.370  168.059  166.940  168.369  171.782  167.965  167.499  167.038  175.175  167.655  167.296  167.071  167.905  168.610  167.705  167.414  169.272  176.307  168.119  167.878  167.526  171.998  168.383  168.433  169.048  170.675  167.898  167.269  167.894  177.467  168.164  167.939  168.038  169.026  170.004  170.710  175.014  177.026  187.727  169.440  169.031  168.771  177.507  168.447  168.417  168.825  169.042  169.254  170.027  170.135  170.471  178.887  169.661  171.107  169.323  173.722  170.512  170.397  169.734  172.004  169.945  169.025  169.947  179.720  169.815  168.760  169.640  169.549  170.708  169.318  170.393  169.937  177.381  171.388  170.788  171.808  177.084  172.151  172.243  172.983  175.146  175.047  175.288  177.057  178.415  190.414  183.713  185.475  188.212  194.221  197.342  202.399  209.008  223.701  225.755  225.816  227.524  238.686  245.452  237.171  233.179  227.843  223.783  218.233  211.928  206.553  211.640  200.318  198.401  194.568  193.909  189.098  186.212  184.786  184.721  185.494  179.889  179.774  178.121  185.494  174.906  174.459  174.071  174.132  173.496  172.863  173.394  183.682  174.304  173.923  173.409  174.727  177.345  174.527  175.778  175.209  179.495  173.864  175.379  174.295  182.905  174.171  173.515  171.343  172.261  172.030  171.030  170.966  170.383  179.150  169.093  170.003  170.222  171.765  169.476  169.182  169.588  174.458  168.689  169.539  169.290  176.268  170.033  168.838  170.271  169.480  169.484  170.055  170.151  170.158  179.552  169.606  169.602  169.893  171.830  170.207  171.340  170.446  175.724  170.642  169.432 
* entered azoff 0.000000 eloff 0.000000
DATE 2017:094:10:30:27 obsn  67 az 167 el 25 freq_MHz  1420.4000 Tsys 145.521 Tant 31.700 vlsr  -39.05 glat -0.205 glon  0.117 azoff 0.00 eloff 0.00 source G0.0 
Fstart 1419.397 fstop 1421.403 spacing 0.009375 bw    2.400 fbw    2.000 MHz nfreq 256 nsam 5242880 npoint 214 integ     3 sigma    0.830 bsw 0
Spectrum      3 integration periods
 169.903  168.930  168.923  171.902  168.712  168.939  170.015  172.886  169.179  169.739  168.971  168.370  168.668  167.714  167.897  170.947  171.764  168.902  168.364  169.053  171.555  169.098  169.487  167.509  171.271  170.813  167.156  168.128  172.680  168.741  168.530  170.604  170.808  168.516  168.123  169.766  168.635  170.696  169.420  169.577  168.841  172.862  169.000  168.598  168.462  168.800  169.074  169.106  168.551  170.315  174.190  170.194  169.748  170.985  171.225  170.825  170.699  169.213  170.701  168.277  167.193  168.313  173.223  171.725  171.044  169.904  170.618  169.992  171.737  175.351  182.957  191.268  171.831  172.335  170.055  175.530  172.335  170.994  173.576  172.486  171.567  170.752  170.728  172.603  175.462  171.940  175.217  173.370  172.020  172.733  171.871  171.396  172.014  171.785  171.753  172.100  176.174  170.858  170.734  169.830  172.093  170.985  171.599  172.012  170.725  172.831  172.124  171.307  173.622  175.942  173.469  175.089  173.028  175.413  175.474  178.234  177.595  180.760  188.748  183.726  188.998  192.963  196.845  197.932  204.856  211.995  221.098  227.805  229.658  224.599  228.997  241.641  239.039  234.986  228.851  222.030  214.084  210.741  206.497  206.206  198.820  196.980  194.613  189.933  188.379  182.946  180.413  181.213  182.831  177.954  177.108  174.852  181.895  173.558  176.111  177.586  173.959  174.254  174.284  174.542  180.437  173.383  174.899  174.534  174.624  175.754  175.374  172.907  175.683  178.772  173.916  173.419  174.773  178.492  173.482  172.434  173.259  172.041  171.387  172.841  171.327  170.770  175.955  171.509  169.738  170.318  172.196  171.622  171.288  169.790  174.343  169.507  171.311  169.945  175.054  171.462  169.529  171.229  171.357  169.829  171.276  171.018  170.409  174.697  170.382  171.256  170.790  171.646  171.612  171.499  171.524  174.064  170.256  170.180 
DATE 2017:094:10:30:40 obsn  68 az 167 el 25 freq_MHz  1420.4000 Tsys 145.521 Tant 31.840 vlsr  -39.05 glat -0.205 glon  0.117 azoff 0.00 eloff 0.00 source G0.0 
Fstart 1419.397 fstop 1421.403 spacing 0.009375 bw    2.400 fbw    2.000 MHz nfreq 256 nsam 5242880 npoint 214 integ    14 sigma    0.399 bsw 0
Spectrum     13 integration periods
 169.719  168.547  168.820  172.332  168.790  168.290  168.894  172.220  169.256  168.532  168.797  169.582  168.281  167.967  169.094  171.782  173.059  169.529  169.280  169.801  170.692  169.209  168.934  168.880  170.196  169.902  168.885  169.501  173.843  168.844  168.513  169.466  169.592  169.326  169.089  169.028  169.365  170.732  169.635  168.938  169.071  173.514  169.226  169.115  168.953  170.007  169.668  169.366  169.231  170.630  174.099  169.511  169.876  169.181  171.909  169.867  170.063  169.411  170.912  170.189  169.576  169.629  175.577  171.227  169.952  169.825  171.006  170.290  171.223  176.917  179.907  191.402  171.530  171.623  170.858  174.998  171.691  171.152  171.815  171.273  171.039  170.817  171.434  171.583  176.667  171.461  171.795  171.873  173.435  172.132  172.159  171.774  173.166  171.525  171.076  171.152  176.707  171.574  170.852  170.812  171.233  170.867  171.156  171.467  171.515  175.164  172.617  171.997  172.091  175.382  173.371  173.412  173.992  175.706  175.899  177.477  179.530  181.626  188.663  184.978  189.085  192.400  195.231  199.430  206.101  211.821  223.081  227.163  227.809  225.006  227.827  239.733  239.464  236.179  229.598  222.592  215.983  211.379  205.940  206.939  198.009  196.592  193.789  190.674  187.700  185.049  181.721  180.829  182.369  176.943  177.425  176.070  180.713  174.603  175.729  177.071  173.977  174.126  174.174  174.551  180.062  174.077  173.789  175.150  174.510  176.278  174.500  174.106  174.182  177.161  173.805  173.775  172.395  178.559  172.232  172.346  172.881  171.998  171.115  171.879  171.568  170.661  176.348  171.501  170.175  170.359  171.919  171.651  171.119  170.335  173.517  170.216  171.050  169.623  175.026  170.798  170.024  170.405  170.715  170.837  170.305  170.559  170.821  176.577  171.111  170.906  171.390  172.357  171.078  171.238  171.790  174.543  171.396  171.131 
* entered azoff 0.000000 eloff 0.000000
DATE 2017:094:10:31:02 obsn  69 az 165 el 26 freq_MHz  1420.4000 Tsys 145.521 Tant 32.277 vlsr  -39.95 glat -0.205 glon  2.617 azoff 0.00 eloff 0.00 source G2.5 
Fstart 1419.397 fstop 1421.403 spacing 0.009375 bw    2.400 fbw    2.000 MHz nfreq 256 nsam 5242880 npoint 214 integ     5 sigma    0.643 bsw 0
Spectrum      5 integration periods
 168.736  169.134  169.403  172.427  169.411  167.758  169.711  171.344  167.766  168.922  168.883  168.468  168.007  168.887  168.699  172.080  172.474  169.461  170.505  170.051  171.114  168.897  169.836  168.440  170.164  170.945  170.116  170.632  172.546  169.018  168.987  169.254  168.963  169.784  168.942  169.164  168.991  171.409  168.491  168.959  169.042  172.996  169.234  169.110  169.761  168.907  169.510  170.683  170.028  170.198  172.693  169.079  169.597  169.825  172.670  169.895  169.412  170.464  172.679  170.841  170.307  169.152  174.984  170.080  170.208  170.237  170.342  170.906  171.284  181.923  176.745  185.228  170.651  169.933  170.820  174.532  170.677  170.154  169.914  170.411  170.015  171.111  171.383  170.566  175.036  171.713  170.487  171.121  172.319  171.069  171.539  170.731  173.266  171.668  172.192  171.347  174.666  170.936  171.863  171.202  170.902  169.951  170.571  170.723  170.617  175.128  171.654  172.187  171.569  175.067  172.607  172.113  173.300  175.592  174.564  176.250  178.806  180.026  188.606  184.014  189.860  193.000  196.919  201.215  206.963  212.263  222.958  227.972  229.853  223.377  223.716  234.430  235.207  231.467  226.668  218.996  211.762  207.985  204.282  206.736  197.667  193.576  193.818  190.065  186.054  183.892  179.593  179.878  179.482  175.657  174.604  176.330  179.147  174.226  173.970  174.578  175.012  172.629  174.873  174.386  178.143  172.863  173.071  172.515  174.401  173.376  172.719  172.449  172.646  174.130  173.517  172.185  171.540  174.640  171.574  170.380  170.179  171.468  168.748  170.954  169.764  169.726  175.390  170.706  169.734  169.764  171.704  169.506  170.068  171.098  173.269  170.091  170.235  169.741  175.208  169.829  170.472  170.033  169.779  170.778  171.322  169.630  170.169  176.247  170.900  171.491  170.767  171.490  171.684  171.482  170.554  173.518  171.439  170.283 
DATE 2017:094:10:31:15 obsn  70 az 165 el 26 freq_MHz  1420.4000 Tsys 145.521 Tant 31.862 vlsr  -39.95 glat -0.205 glon  2.617 azoff 0.00 eloff 0.00 source G2.5 
Fstart 1419.397 fstop 1421.403 spacing 0.009375 bw    2.400 fbw    2.000 MHz nfreq 256 nsam 5242880 npoint 214 integ    16 sigma    0.371 bsw 0
Spectrum     15 integration periods
 169.461  169.282  169.337  171.973  169.557  168.290  169.317  171.445  168.692  168.904  168.813  168.694  168.372  168.703  168.637  171.935  172.719  168.906  170.148  169.029  170.961  169.336  169.796  169.041  170.491  169.736  169.437  170.118  173.567  168.580  168.745  169.704  168.537  169.966  169.024  169.351  168.863  171.803  168.784  169.324  169.153  173.034  168.936  169.141  169.600  168.896  169.633  169.860  170.427  170.166  173.233  169.602  169.737  170.051  172.190  169.491  170.040  169.681  171.401  170.102  170.331  169.961  175.344  170.047  170.482  169.906  170.431  170.692  171.617  183.252  174.603  184.657  170.601  170.790  170.481  173.836  171.469  170.500  170.223  170.324  170.694  171.411  171.076  170.265  174.310  170.998  170.831  171.036  172.916  171.701  171.574  171.353  172.518  171.487  171.651  171.960  175.850  171.144  170.988  171.285  170.958  170.544  171.589  170.562  170.540  175.609  171.906  171.075  171.773  174.525  172.181  172.709  173.939  174.966  175.560  177.238  178.071  180.512  188.212  184.613  189.761  192.754  198.230  201.796  207.058  212.133  222.845  227.941  229.757  224.041  223.361  235.427  235.587  231.225  224.573  217.931  213.098  208.386  203.840  206.005  197.421  194.397  192.004  189.223  185.950  182.995  180.302  179.748  180.199  176.585  175.319  176.309  179.295  174.867  175.117  175.237  174.208  172.946  174.896  174.519  177.956  172.383  173.100  173.101  173.389  173.505  172.981  172.742  172.759  174.327  172.276  171.509  171.015  174.904  171.445  171.114  170.907  170.453  169.590  170.886  170.292  170.716  175.042  170.604  170.246  169.531  171.156  169.227  169.932  170.130  172.823  170.102  170.293  170.202  174.108  170.348  169.928  169.884  170.028  170.261  170.863  169.939  169.979  175.061  170.498  171.200  171.678  171.213  171.537  170.613  170.364  173.529  170.658  170.764 
* entered azoff 0.000000 eloff 0.000000
DATE 2017:094:10:31:36 obsn  71 az 163 el 28 freq_MHz  1420.4000 Tsys 145.521 Tant 29.103 vlsr  -40.78 glat -0.206 glon  5.117 azoff 0.00 eloff 0.00 source G5.0 
Fstart 1419.397 fstop 1421.403 spacing 0.009375 bw    2.400 fbw    2.000 MHz nfreq 256 nsam 5242880 npoint 214 integ     8 sigma    0.544 bsw 0
Spectrum      7 integration periods
 166.009  167.132  166.757  168.218  166.862  166.982  165.724  168.443  167.558  166.628  167.395  166.549  167.162  165.547  166.826  168.948  169.651  166.523  167.175  168.020  168.356  167.184  167.188  166.946  168.094  167.502  166.891  167.757  170.225  167.369  167.378  166.184  168.276  167.119  166.455  166.519  166.494  168.026  167.570  167.726  166.738  169.399  166.960  167.758  167.718  167.263  167.802  167.975  168.236  167.335  169.351  166.210  167.427  167.890  169.857  167.345  168.416  167.682  166.770  167.856  167.567  167.399  170.539  167.993  167.376  168.265  167.311  168.594  169.989  181.762  164.786  184.487  168.295  168.213  168.302  170.707  169.399  169.152  168.488  167.623  168.088  168.523  167.690  168.031  171.788  168.075  168.937  168.919  170.508  169.341  168.633  168.939  168.915  168.206  167.556  169.058  172.386  168.022  168.015  168.464  168.032  168.115  169.190  168.574  167.666  171.103  169.347  168.818  169.753  172.191  170.029  171.566  172.268  172.427  174.571  175.806  176.629  178.668  184.766  184.854  188.817  194.298  198.262  204.223  208.353  213.756  221.445  225.074  227.821  222.409  214.170  224.077  230.018  227.763  219.767  213.962  207.518  205.011  200.754  201.979  194.683  193.254  189.086  188.039  184.328  182.355  180.328  179.640  177.324  175.294  173.663  173.351  174.908  172.042  171.094  172.036  170.821  170.861  169.097  170.297  172.771  169.400  168.596  169.939  169.172  169.748  168.330  169.135  168.914  169.099  169.139  169.010  169.021  169.963  167.173  166.016  167.976  167.027  166.974  167.834  166.567  167.257  171.844  167.633  167.684  167.250  167.207  167.097  166.934  167.509  168.769  166.461  166.950  166.114  170.203  166.837  165.311  167.736  167.895  168.226  166.631  167.608  168.553  170.464  167.314  167.871  167.681  169.590  168.095  169.109  169.074  170.331  168.197  167.425 
DATE 2017:094:10:31:49 obsn  72 az 163 el 28 freq_MHz  1420.4000 Tsys 145.521 Tant 29.382 vlsr  -40.78 glat -0.206 glon  5.117 azoff 0.00 eloff 0.00 source G5.0 
Fstart 1419.397 fstop 1421.403 spacing 0.009375 bw    2.400 fbw    2.000 MHz nfreq 256 nsam 5242880 npoint 214 integ    19 sigma    0.349 bsw 0
Spectrum     17 integration periods
 166.415  167.092  166.930  169.073  167.100  166.830  166.783  168.839  167.572  167.087  167.223  166.821  167.021  166.490  166.854  169.374  169.809  167.234  166.794  167.348  168.536  167.643  167.567  167.105  168.364  167.493  166.704  167.228  170.517  167.430  166.790  166.966  167.063  167.662  166.624  166.606  167.264  168.694  167.163  167.025  167.147  169.945  167.540  167.962  167.526  167.434  168.144  168.145  167.930  167.240  169.938  167.429  167.678  167.778  169.759  167.815  168.040  167.077  167.954  168.024  167.807  167.814  171.657  168.270  167.414  168.471  167.337  169.142  169.338  181.380  166.162  184.140  168.197  168.202  167.589  171.311  169.851  168.262  167.998  168.561  168.147  168.044  168.210  168.196  171.507  167.841  168.317  168.197  169.946  169.302  168.470  168.886  168.604  168.708  167.743  168.601  171.890  168.102  168.315  168.792  168.508  168.614  169.253  168.596  168.015  171.251  169.264  168.750  169.366  172.529  170.596  171.616  172.380  173.054  174.283  175.385  176.998  179.554  185.263  184.953  188.744  193.744  198.646  203.053  208.678  213.438  221.515  225.552  227.733  222.199  214.680  225.031  230.315  227.445  219.821  213.683  207.634  204.463  200.408  202.209  194.939  192.204  189.163  187.886  184.318  182.090  180.105  179.470  177.473  175.155  174.388  173.936  175.645  171.401  171.160  172.243  171.217  170.465  169.539  170.376  173.011  168.975  168.994  169.736  169.220  170.113  168.480  168.975  168.797  169.774  168.262  168.503  167.917  171.066  167.949  167.131  167.462  167.320  167.349  168.261  167.325  167.478  171.492  167.155  167.436  167.333  167.331  167.162  166.871  167.795  168.988  167.103  167.330  166.322  169.985  166.715  166.594  167.267  167.521  168.010  166.502  167.877  168.349  170.888  167.623  168.088  168.368  169.082  168.474  168.253  168.742  170.430  167.927  168.324 
* entered azoff 0.000000 eloff 0.000000
DATE 2017:094:10:32:10 obsn  73 az 161 el 30 freq_MHz  1420.4000 Tsys 145.521 Tant 28.960 vlsr  -41.53 glat -0.206 glon  7.618 azoff 0.00 eloff 0.00 source G7.5 
Fstart 1419.397 fstop 1421.403 spacing 0.009375 bw    2.400 fbw    2.000 MHz nfreq 256 nsam 5242880 npoint 214 integ    10 sigma    0.479 bsw 0
Spectrum      9 integration periods
 167.379  167.575  167.619  169.183  167.209  168.023  166.525  168.371  167.355  167.683  166.220  167.911  166.029  166.865  165.929  166.923  168.101  167.079  166.470  167.892  168.182  166.868  166.771  167.953  167.889  167.832  167.688  167.565  169.051  168.093  168.504  167.139  166.473  167.377  167.187  166.935  167.251  167.987  167.186  167.165  168.481  170.042  168.086  167.570  167.725  168.377  168.861  167.914  167.699  168.290  169.887  169.182  168.588  169.387  169.339  168.578  169.097  168.835  169.097  168.466  169.332  168.237  171.283  170.462  168.583  169.347  168.440  169.648  170.857  186.572  171.912  182.697  169.199  169.489  169.593  169.779  168.084  167.752  168.020  168.057  168.503  167.593  167.630  167.520  169.045  167.770  168.859  168.729  168.934  169.410  169.293  170.012  169.323  169.067  168.391  168.319  169.759  167.719  168.204  168.164  168.818  169.056  168.320  167.232  168.421  170.997  169.586  171.085  171.090  172.894  172.670  174.052  174.544  176.264  177.414  179.134  180.751  182.643  188.829  190.071  194.183  200.325  203.743  207.299  210.799  215.021  219.237  223.080  226.541  219.662  209.879  216.118  223.716  222.864  214.216  208.600  205.169  202.662  200.614  200.004  199.194  195.623  193.684  190.802  187.868  184.193  182.393  179.375  178.912  175.321  173.161  171.544  173.251  169.665  169.919  170.046  169.447  169.190  169.331  168.625  169.033  167.559  168.178  168.551  168.253  167.897  167.945  168.406  168.777  168.977  168.314  168.505  167.901  169.259  166.668  166.921  167.842  167.436  167.577  168.619  166.588  167.536  167.926  166.354  167.315  166.857  167.806  166.154  166.883  167.233  167.864  167.301  166.732  167.755  168.539  167.286  167.111  167.340  167.736  167.048  167.597  168.071  167.430  170.088  167.921  167.085  168.115  166.698  167.178  166.612  168.232  168.704  167.696  167.089 
DATE 2017:094:10:32:32 obsn  74 az 159 el 32 freq_MHz  1420.4000 Tsys 145.521 Tant 29.043 vlsr  -42.20 glat -0.205 glon 10.118 azoff 0.00 eloff 0.00 source G10.0 
Fstart 1419.397 fstop 1421.403 spacing 0.009375 bw    2.400 fbw    2.000 MHz nfreq 256 nsam 5242880 npoint 214 integ     1 sigma    1.438 bsw 0
Spectrum      1 integration periods
 164.553  167.022  166.029  169.139  166.109  167.647  165.402  168.434  167.103  167.447  167.134  169.756  170.319  166.300  165.300  168.395  168.667  168.593  167.668  163.469  168.274  167.761  168.035  166.998  163.668  166.608  163.218  164.758  169.129  165.852  165.834  167.187  165.167  164.812  168.593  164.823  165.866  165.595  167.458  164.105  165.211  169.323  167.479  165.818  167.907  166.383  168.643  168.955  168.376  167.543  171.113  170.736  167.451  164.987  172.043  168.935  168.096  171.236  166.495  165.884  168.194  165.916  173.125  171.782  168.180  168.899  167.454  167.601  170.479  192.789  174.696  179.109  166.342  167.814  167.990  170.575  170.543  168.726  168.130  165.023  169.334  168.070  170.675  168.480  170.290  168.518  165.665  169.468  168.074  171.130  168.055  168.163  168.215  167.767  170.793  170.431  169.993  170.347  167.181  168.577  169.262  168.257  167.514  169.624  168.933  173.248  174.625  172.389  175.135  178.734  174.798  179.601  177.092  180.035  180.506  186.665  190.111  189.547  195.959  196.013  196.748  206.550  208.011  206.968  216.037  213.477  219.151  222.357  223.071  217.575  217.008  214.794  219.114  218.974  211.125  206.762  201.863  201.453  198.195  202.051  200.880  195.359  196.149  188.862  186.637  186.722  180.480  180.840  177.310  172.296  170.239  169.637  173.988  168.894  166.486  168.246  169.465  164.055  167.211  168.939  171.329  168.087  168.828  165.134  166.260  166.005  166.077  166.786  170.173  170.096  168.474  167.761  163.240  170.530  165.440  165.103  167.575  164.216  166.289  167.427  168.351  165.567  170.835  167.122  164.354  163.678  165.881  166.831  168.247  164.658  166.827  164.123  165.236  167.596  168.569  166.747  166.398  162.371  164.707  167.480  165.946  169.346  164.058  169.898  166.732  168.396  168.965  165.179  164.998  167.928  168.653  167.339  167.948  164.647 
* entered azoff 0.000000 eloff 0.000000
DATE 2017:094:10:32:45 obsn  75 az 159 el 32 freq_MHz  1420.4000 Tsys 145.521 Tant 28.883 vlsr  -42.20 glat -0.205 glon 10.118 azoff 0.00 eloff 0.00 source G10.0 
Fstart 1419.397 fstop 1421.403 spacing 0.009375 bw    2.400 fbw    2.000 MHz nfreq 256 nsam 5242880 npoint 214 integ    12 sigma    0.434 bsw 0
Spectrum     11 integration periods
 166.347  166.815  166.706  167.234  165.678  165.652  166.288  167.603  165.857  165.788  166.351  166.949  166.175  165.337  166.205  167.125  168.211  165.847  167.263  166.803  167.440  166.369  167.100  166.090  166.552  166.353  166.084  166.404  168.649  166.758  165.932  166.016  165.955  165.952  166.307  166.117  165.832  167.048  167.561  166.200  166.274  168.548  166.719  166.637  167.266  166.162  166.908  167.207  167.696  167.611  168.735  167.755  167.324  167.923  169.180  167.717  167.783  167.885  168.002  167.368  167.478  167.457  169.891  168.187  166.521  168.050  167.989  168.241  169.201  191.201  176.047  179.606  168.858  169.166  167.408  169.908  168.911  167.965  167.149  167.076  168.337  166.894  167.618  168.148  169.814  168.730  168.133  168.559  169.776  169.451  167.670  168.063  168.601  167.973  169.203  168.873  170.260  168.704  168.194  168.637  168.014  169.626  170.152  169.373  170.159  172.420  171.896  172.250  174.026  176.126  176.304  177.888  177.602  180.395  182.842  185.368  188.444  190.242  195.906  196.006  198.888  203.338  207.039  209.892  212.464  215.728  219.992  222.264  222.751  220.034  213.732  212.686  218.411  217.614  211.612  204.316  201.476  199.777  198.864  200.499  197.028  196.671  194.159  190.744  188.501  185.515  182.107  179.865  176.345  173.217  171.800  170.524  171.521  168.987  168.050  169.348  167.969  166.486  166.534  167.604  169.513  166.721  167.351  165.994  166.432  166.519  166.872  165.732  167.233  167.578  166.900  166.335  166.106  168.087  165.792  166.080  167.111  165.173  165.685  166.435  166.068  165.707  167.823  166.351  165.618  165.698  165.841  165.461  166.893  165.477  166.883  166.138  165.404  166.005  168.429  166.454  165.940  166.140  165.655  166.022  166.885  166.167  166.034  168.112  166.038  168.283  168.156  166.554  166.208  166.879  166.984  167.861  167.112  166.961 
* entered azoff 0.000000 eloff 0.000000
DATE 2017:094:10:33:22 obsn  76 az 157 el 34 freq_MHz  1420.4000 Tsys 145.521 Tant 29.557 vlsr  -42.79 glat -0.205 glon 12.618 azoff 0.00 eloff 0.00 source G12.5 
Fstart 1419.397 fstop 1421.403 spacing 0.009375 bw    2.400 fbw    2.000 MHz nfreq 256 nsam 5242880 npoint 214 integ     9 sigma    0.508 bsw 0
Spectrum      8 integration periods
 167.247  165.972  166.288  168.753  166.386  166.710  166.964  167.954  166.184  166.305  166.254  166.137  165.369  165.872  165.832  167.729  167.445  165.484  166.731  165.948  168.163  166.068  165.286  167.011  168.084  166.482  166.337  165.899  169.694  164.733  165.924  165.934  165.151  165.120  166.039  165.488  164.813  168.061  166.011  167.000  166.121  168.209  166.157  166.528  167.260  166.494  166.708  167.607  166.844  166.741  168.371  166.910  166.085  168.073  167.547  166.436  168.498  166.621  168.346  167.624  166.732  167.516  169.623  168.028  167.375  166.727  167.796  167.738  170.763  194.800  169.856  172.794  167.379  169.109  168.072  170.454  169.109  168.302  166.660  166.813  167.986  168.334  167.749  167.699  170.358  168.440  167.673  169.368  169.384  169.587  168.708  168.858  169.850  169.197  167.926  168.753  171.738  169.111  169.837  170.478  171.854  171.733  171.900  173.037  173.819  177.918  176.393  177.762  178.923  182.514  182.563  183.996  186.663  188.080  189.098  191.618  194.374  196.166  201.763  202.164  204.004  207.345  210.699  213.161  214.348  218.212  221.019  223.630  221.745  220.799  217.395  215.704  218.576  217.481  211.893  202.417  198.292  195.873  194.692  197.355  194.120  194.144  191.874  191.389  189.187  186.362  182.848  179.765  178.102  174.529  173.071  171.052  171.806  168.851  168.969  169.515  166.119  166.864  166.927  166.901  169.233  166.178  166.909  166.880  166.167  166.864  166.204  166.050  166.912  167.631  167.199  166.502  165.325  167.699  165.944  166.165  167.123  165.504  165.408  164.914  164.718  164.469  166.895  164.911  165.401  164.838  165.162  165.608  165.416  165.492  165.767  165.268  164.742  165.166  168.075  165.348  166.193  165.477  164.748  165.636  165.550  165.690  165.187  168.568  164.894  171.888  169.643  166.358  165.981  165.442  167.417  168.701  167.096  166.889 
* entered azoff 0.000000 eloff 0.000000
DATE 2017:094:10:33:51 obsn  77 az 155 el 35 freq_MHz  1420.4000 Tsys 145.521 Tant 30.111 vlsr  -43.30 glat -0.203 glon 15.118 azoff 0.00 eloff 0.00 source G15.0 
Fstart 1419.397 fstop 1421.403 spacing 0.009375 bw    2.400 fbw    2.000 MHz nfreq 256 nsam 5242880 npoint 214 integ     7 sigma    0.587 bsw 0
Spectrum      6 integration periods
 167.493  167.244  166.747  169.389  167.338  166.344  166.712  169.595  165.985  166.555  165.474  166.684  165.125  166.325  167.409  169.967  169.006  165.956  166.076  165.866  167.652  166.540  166.634  167.420  168.356  168.110  165.619  166.790  172.048  165.674  165.552  166.497  167.030  166.652  167.074  166.508  164.800  167.248  166.585  167.012  167.635  170.978  166.933  166.752  165.841  165.505  166.319  166.014  166.371  166.594  171.235  166.741  167.333  166.529  170.579  167.760  167.155  167.666  169.684  166.752  168.448  168.201  172.875  169.388  168.254  166.985  168.088  168.486  172.099  201.453  168.691  174.617  170.050  168.402  169.047  173.583  168.344  167.813  168.232  168.822  168.210  167.747  168.965  168.355  174.070  169.955  170.336  170.873  170.884  169.866  169.848  170.122  171.892  170.083  170.167  170.194  175.946  171.595  170.835  172.918  172.080  174.302  172.564  175.645  177.490  182.606  180.157  180.410  183.924  187.000  185.427  187.655  188.766  191.745  193.686  195.242  195.910  199.049  207.594  204.902  205.905  210.331  213.237  213.378  216.580  218.440  222.383  220.617  218.274  218.669  220.444  220.180  218.601  219.449  211.481  201.468  196.176  194.745  191.286  196.030  189.148  189.189  190.168  189.281  188.417  186.437  183.365  180.589  179.574  175.511  174.104  172.510  174.461  169.405  168.948  170.488  167.891  167.193  167.367  166.451  169.425  166.266  166.774  166.002  166.496  167.554  165.404  165.384  166.158  168.108  166.589  166.556  165.642  169.171  165.183  166.083  165.328  165.397  166.245  164.623  166.287  165.319  168.870  164.980  164.799  165.108  165.278  165.867  166.248  164.588  167.248  164.618  165.292  165.749  168.553  165.768  164.850  166.478  165.055  166.150  166.465  165.989  165.121  169.913  165.157  169.240  168.283  166.506  166.034  166.193  166.609  169.200  165.613  165.940 
DATE 2017:094:10:34:04 obsn  78 az 155 el 35 freq_MHz  1420.4000 Tsys 145.521 Tant 30.123 vlsr  -43.30 glat -0.203 glon 15.118 azoff 0.00 eloff 0.00 source G15.0 
Fstart 1419.397 fstop 1421.403 spacing 0.009375 bw    2.400 fbw    2.000 MHz nfreq 256 nsam 5242880 npoint 214 integ    17 sigma    0.360 bsw 0
Spectrum     16 integration periods
 167.524  167.011  166.947  170.199  167.333  166.729  167.032  169.795  166.042  165.939  165.977  166.837  166.254  166.227  166.541  169.746  170.086  166.375  166.584  166.937  167.711  166.804  166.716  167.436  167.966  167.354  166.501  166.606  172.592  166.160  166.777  166.403  166.744  167.303  166.726  166.299  165.357  167.817  166.921  166.242  166.028  171.032  166.500  166.163  165.943  166.201  166.975  166.617  166.506  166.808  171.155  166.980  167.287  166.530  170.181  167.127  166.856  167.662  169.433  167.796  168.584  168.372  173.154  169.605  167.787  167.758  168.003  169.173  172.147  200.290  169.414  174.699  169.807  169.818  168.961  173.701  169.582  168.523  168.883  168.966  168.110  168.304  169.114  168.751  174.137  170.008  170.027  170.096  171.664  170.052  169.361  170.403  170.649  170.227  170.112  170.099  175.640  170.948  171.546  172.100  172.849  173.343  173.836  175.506  177.101  182.561  180.130  181.111  183.511  187.560  185.762  187.716  189.502  191.794  193.023  195.264  196.551  199.671  206.901  204.581  206.445  209.948  212.670  214.558  216.056  218.233  223.046  220.960  219.470  219.041  221.471  219.605  219.238  218.968  211.126  201.706  197.413  194.852  192.096  196.302  190.190  189.826  190.456  190.343  187.981  185.829  182.828  181.037  179.944  175.376  173.535  171.888  175.463  169.849  168.661  170.059  167.762  167.467  166.996  166.813  170.439  166.065  166.922  165.889  166.492  167.211  166.072  165.985  166.317  168.188  166.709  166.422  166.251  169.385  165.921  166.196  165.634  165.868  166.044  165.531  165.646  165.833  169.204  164.993  165.719  165.565  165.874  166.067  166.587  165.877  167.540  165.401  166.014  166.036  168.813  165.932  166.081  165.969  165.364  166.335  165.844  165.722  165.689  170.385  165.528  170.330  169.501  166.624  166.231  165.503  166.241  168.865  165.752  165.512 
* entered azoff 0.000000 eloff 0.000000
DATE 2017:094:10:34:26 obsn  79 az 153 el 37 freq_MHz  1420.4000 Tsys 145.521 Tant 29.725 vlsr  -43.73 glat -0.202 glon 17.618 azoff 0.00 eloff 0.00 source G17.5 
Fstart 1419.397 fstop 1421.403 spacing 0.009375 bw    2.400 fbw    2.000 MHz nfreq 256 nsam 5242880 npoint 214 integ     9 sigma    0.508 bsw 0
Spectrum      8 integration periods
 168.163  168.126  167.930  171.097  167.946  167.759  166.696  172.162  166.679  166.050  166.972  168.513  168.034  167.445  166.705  172.374  172.827  167.930  165.664  168.414  170.076  167.222  167.484  168.399  168.402  166.422  166.941  168.321  174.313  167.134  167.512  167.238  166.419  166.989  165.341  166.801  166.465  168.851  165.707  166.202  166.397  172.784  166.996  166.233  166.531  168.201  165.812  166.501  165.841  167.134  172.336  166.396  165.795  167.138  171.198  166.705  166.901  167.145  167.568  167.696  167.114  167.853  174.818  171.609  166.960  168.466  169.674  170.959  172.687  195.344  174.039  177.159  171.060  169.791  170.681  176.624  169.684  169.967  168.937  170.860  169.121  170.203  169.670  170.781  178.416  170.863  170.882  171.319  174.975  171.516  170.820  172.165  172.511  171.713  172.373  172.589  181.186  173.561  174.244  174.150  175.290  176.420  178.231  179.429  180.228  186.535  181.048  183.663  184.743  189.369  186.838  187.573  188.757  191.498  191.464  193.942  195.703  199.374  208.008  203.202  207.140  210.028  214.258  215.127  217.971  218.374  224.241  218.177  215.758  215.653  220.551  219.476  215.357  216.737  211.967  203.993  195.279  189.907  188.027  193.282  185.951  186.162  186.170  187.834  187.003  186.708  186.054  184.196  184.675  179.914  178.044  176.000  180.887  172.042  170.717  172.335  169.022  167.281  167.548  166.286  174.207  166.289  165.287  166.459  166.072  168.450  167.090  165.268  165.642  168.629  166.001  165.170  165.776  170.868  165.621  166.315  164.921  165.751  165.097  164.614  165.684  165.898  172.715  166.367  164.156  165.445  167.996  163.169  164.951  164.803  168.506  165.354  165.549  165.588  171.872  165.531  166.352  165.906  165.724  166.632  166.159  165.596  165.730  173.488  166.265  166.650  166.276  168.016  166.024  166.951  165.221  170.790  165.510  166.610 
DATE 2017:094:10:34:39 obsn  80 az 153 el 37 freq_MHz  1420.4000 Tsys 145.521 Tant 29.907 vlsr  -43.73 glat -0.202 glon 17.618 azoff 0.00 eloff 0.00 source G17.5 
Fstart 1419.397 fstop 1421.403 spacing 0.009375 bw    2.400 fbw    2.000 MHz nfreq 256 nsam 5242880 npoint 214 integ    20 sigma    0.339 bsw 0
Spectrum     18 integration periods
 167.379  167.574  167.959  171.661  167.066  167.288  167.094  171.602  166.866  166.489  167.000  167.495  167.075  166.740  166.581  171.225  172.323  167.895  166.698  168.015  169.999  167.003  167.303  167.707  168.717  167.072  166.978  167.667  173.581  167.335  167.076  166.516  166.611  166.848  165.903  166.208  166.200  169.301  165.749  166.182  166.682  172.406  166.796  166.778  167.007  167.398  166.287  166.597  165.888  167.243  172.584  166.446  166.806  166.998  170.576  166.672  166.734  166.996  167.832  167.857  167.729  167.244  174.939  171.551  167.538  168.246  169.014  170.734  172.217  196.536  174.698  175.652  171.215  170.506  170.537  176.226  170.695  170.719  169.779  170.590  170.044  169.687  170.081  171.264  177.805  171.604  171.048  171.139  174.706  171.900  171.305  170.984  172.837  171.534  172.059  172.020  180.208  172.957  174.763  174.561  175.199  176.530  178.016  179.413  180.302  185.977  181.706  183.993  184.634  189.705  186.519  187.945  188.713  190.859  191.871  193.174  195.653  198.904  207.436  203.227  207.273  209.623  214.011  215.128  217.496  219.137  223.571  218.726  216.529  215.338  219.514  218.933  215.001  216.535  212.233  203.391  195.232  191.016  188.250  193.839  185.976  185.972  186.398  187.105  186.940  186.413  185.823  184.541  184.471  179.962  178.424  176.219  180.144  171.805  170.627  172.393  169.505  167.567  167.707  167.177  173.138  166.433  165.572  166.282  166.212  167.820  165.460  165.239  166.174  168.859  166.122  165.620  165.740  171.127  165.755  166.001  164.493  165.711  165.433  165.665  165.675  165.795  171.986  165.699  164.142  165.591  167.466  164.330  165.517  164.836  168.507  165.511  164.551  165.472  171.288  165.749  165.957  165.456  165.497  165.904  165.803  165.001  165.760  173.370  166.512  166.469  166.428  168.399  165.926  166.525  165.766  170.314  166.431  166.363 
* entered azoff 0.000000 eloff 0.000000
DATE 2017:094:10:35:00 obsn  81 az 151 el 39 freq_MHz  1420.4000 Tsys 145.521 Tant 30.115 vlsr  -44.07 glat -0.200 glon 20.118 azoff 0.00 eloff 0.00 source G20.0 
Fstart 1419.397 fstop 1421.403 spacing 0.009375 bw    2.400 fbw    2.000 MHz nfreq 256 nsam 5242880 npoint 214 integ    11 sigma    0.455 bsw 0
Spectrum     10 integration periods
 167.269  166.716  166.403  169.871  166.716  165.516  165.509  169.403  165.560  166.638  165.533  166.689  166.457  167.150  165.839  169.558  170.224  166.013  166.745  167.627  168.236  167.133  166.169  165.141  168.233  165.535  166.493  165.324  171.892  166.567  167.117  165.001  166.314  167.626  165.409  166.114  165.824  167.512  165.584  165.737  164.719  169.474  165.054  164.985  165.961  166.211  166.036  165.455  165.395  166.691  169.466  166.050  165.938  164.973  168.320  166.278  165.044  165.342  166.418  166.031  165.226  165.713  170.216  168.523  165.934  167.164  166.839  168.320  170.247  197.393  174.062  173.754  170.083  170.867  169.900  174.458  171.928  171.456  172.880  172.324  172.024  171.799  171.396  170.839  175.841  171.633  172.020  172.478  174.363  173.870  172.633  171.986  174.092  173.325  173.566  173.871  180.291  175.909  175.169  176.209  176.855  177.194  177.679  178.003  180.508  184.316  182.458  182.749  182.620  186.982  185.695  186.188  186.789  188.349  190.508  192.009  193.136  195.886  202.740  200.465  203.357  207.158  211.167  214.465  216.874  218.318  219.750  215.384  214.017  212.271  214.295  211.432  211.432  213.567  214.200  205.549  194.032  188.945  185.298  188.252  182.555  182.424  181.139  183.093  183.847  183.226  184.969  183.404  184.518  182.170  181.272  180.138  181.617  175.604  172.368  171.645  168.603  168.036  167.446  165.985  171.117  166.325  164.733  166.121  164.669  167.251  165.906  165.254  165.416  167.055  164.474  164.356  164.861  167.644  164.740  164.922  164.976  164.314  164.519  164.158  164.500  164.915  169.302  165.044  164.577  164.258  166.375  165.312  164.221  164.379  167.774  164.530  164.220  165.265  168.957  164.803  165.320  166.454  166.237  165.042  165.512  165.222  165.465  169.466  165.240  174.711  173.002  166.517  165.294  166.233  165.249  168.208  164.494  165.596 
* entered azoff 0.000000 eloff 0.000000
DATE 2017:094:10:35:21 obsn  82 az 148 el 40 freq_MHz  1420.4000 Tsys 145.521 Tant 29.805 vlsr  -44.33 glat -0.197 glon 22.618 azoff 0.00 eloff 0.00 source G22.5 
Fstart 1419.397 fstop 1421.403 spacing 0.009375 bw    2.400 fbw    2.000 MHz nfreq 256 nsam 5242880 npoint 214 integ     2 sigma    1.017 bsw 0
Spectrum      2 integration periods
 165.156  165.908  165.698  166.311  166.279  164.605  164.773  166.466  165.437  164.689  163.828  164.197  164.834  164.863  164.330  163.375  166.300  165.462  165.407  164.921  163.958  167.292  166.778  164.952  165.389  165.124  164.446  165.197  166.644  165.123  164.630  164.706  164.382  165.645  165.577  165.197  163.460  165.966  163.661  164.524  164.527  165.627  164.328  164.399  162.771  165.920  164.312  164.581  165.120  166.467  164.294  164.520  164.945  165.891  166.855  163.276  163.451  165.925  164.917  166.345  162.550  164.840  167.262  167.332  164.676  167.417  166.679  166.214  169.339  185.640  180.314  172.208  169.407  172.964  172.324  173.285  174.354  175.363  174.875  175.327  176.703  175.907  176.351  177.376  178.098  175.924  178.321  176.026  178.736  178.308  177.674  181.393  179.153  181.285  177.366  178.034  180.356  179.448  180.996  178.995  180.771  183.447  182.096  182.517  181.347  184.767  184.378  187.247  187.756  188.891  189.211  190.674  192.487  191.909  192.109  193.756  194.324  196.146  198.749  199.194  200.712  202.238  204.753  208.716  210.634  211.244  214.748  213.693  208.301  209.874  209.188  208.649  212.569  213.354  214.821  206.441  196.694  191.119  185.801  186.137  179.343  182.370  179.417  181.528  181.851  180.751  180.938  180.775  181.810  179.050  180.672  181.781  179.927  175.021  173.985  175.297  170.795  166.225  167.601  167.486  168.800  166.880  165.747  165.903  165.770  164.741  163.782  165.505  166.301  166.590  165.055  164.547  165.879  167.045  166.472  164.539  163.393  165.228  163.553  164.954  165.434  165.351  166.670  164.493  166.699  165.670  167.187  162.914  164.564  165.124  165.540  164.536  164.825  166.572  166.194  164.667  163.293  167.937  165.475  165.383  166.310  166.566  164.184  166.582  167.971  192.262  185.413  165.956  165.204  165.256  166.420  166.723  167.301  166.637 
DATE 2017:094:10:35:34 obsn  83 az 148 el 40 freq_MHz  1420.4000 Tsys 145.521 Tant 29.740 vlsr  -44.33 glat -0.197 glon 22.618 azoff 0.00 eloff 0.00 source G22.5 
Fstart 1419.397 fstop 1421.403 spacing 0.009375 bw    2.400 fbw    2.000 MHz nfreq 256 nsam 5242880 npoint 214 integ    13 sigma    0.415 bsw 0
Spectrum     12 integration periods
 166.674  165.789  164.867  168.098  165.342  164.770  164.671  166.245  164.423  165.074  164.202  164.780  165.167  164.310  165.667  165.689  166.387  164.521  165.120  164.993  165.118  165.732  165.158  165.410  166.334  166.194  165.515  165.332  166.923  165.364  165.356  165.418  164.253  165.244  164.860  165.634  164.304  166.384  164.711  164.488  165.139  165.965  164.158  164.899  164.260  165.441  164.763  165.270  165.432  165.321  166.194  164.971  165.325  165.377  166.510  165.570  164.223  165.576  165.580  165.537  165.129  164.727  167.520  166.922  165.449  166.231  165.785  167.361  169.665  188.374  168.540  171.025  170.039  171.353  172.168  175.087  173.177  174.728  175.256  175.348  175.656  175.352  176.491  176.493  179.265  176.430  177.472  178.541  180.102  179.186  179.283  179.390  178.919  179.713  180.095  179.537  181.381  180.689  180.941  180.879  181.566  182.394  182.976  182.993  183.599  185.589  186.275  187.052  187.526  189.610  189.446  189.939  192.311  192.408  192.788  193.836  194.356  195.943  198.633  198.026  200.048  201.518  204.234  208.079  210.793  212.068  214.976  211.371  210.359  210.027  210.766  209.214  210.427  211.039  215.946  208.794  195.762  190.731  185.156  185.403  181.209  181.670  181.337  181.079  182.827  181.496  182.073  181.303  183.029  181.135  180.576  181.588  181.532  177.658  175.364  174.080  171.826  169.905  169.104  168.518  168.995  166.583  166.597  166.623  166.350  166.649  166.447  166.119  165.618  167.329  166.342  166.740  166.527  167.517  166.161  164.927  165.111  165.007  165.460  165.588  165.777  164.744  167.418  164.900  166.373  166.362  165.628  165.324  165.868  165.186  166.843  166.070  165.775  166.089  166.471  166.955  165.334  166.386  165.582  166.385  165.992  166.049  166.503  168.587  166.951  190.706  185.358  167.465  166.729  166.764  167.619  169.038  167.392  166.945 
* entered azoff 0.000000 eloff 0.000000
DATE 2017:094:10:36:04 obsn  84 az 146 el 42 freq_MHz  1420.4000 Tsys 145.521 Tant 30.660 vlsr  -44.51 glat -0.195 glon 25.118 azoff 0.00 eloff 0.00 source G25.0 
Fstart 1419.397 fstop 1421.403 spacing 0.009375 bw    2.400 fbw    2.000 MHz nfreq 256 nsam 5242880 npoint 214 integ     5 sigma    0.643 bsw 0
Spectrum      5 integration periods
 165.370  164.656  165.040  165.363  165.489  164.750  162.472  165.192  165.502  164.341  164.429  164.697  164.876  163.756  164.570  165.670  167.167  165.334  167.002  168.364  167.901  166.152  165.897  165.614  167.445  165.469  165.033  166.913  168.640  166.917  166.460  166.244  165.853  165.670  165.068  164.647  164.281  165.427  164.841  166.664  167.040  165.404  164.905  163.879  165.366  164.764  165.457  164.207  164.566  164.625  165.010  163.800  164.331  164.493  164.764  164.546  165.567  165.351  165.061  164.377  164.284  164.894  165.674  166.077  163.292  164.259  165.542  166.822  168.523  183.656  169.298  168.542  170.973  171.270  172.407  176.076  175.586  176.724  178.462  179.192  180.151  182.421  181.650  183.959  185.845  185.108  184.573  186.014  185.060  185.446  183.543  183.379  184.035  182.667  182.783  183.036  185.031  183.020  180.941  182.850  181.772  182.086  182.617  183.698  186.108  185.749  187.514  187.274  187.239  189.402  187.550  189.410  190.087  192.098  193.076  193.733  193.215  194.685  196.267  194.273  197.783  197.152  199.785  203.165  208.489  209.328  210.304  208.153  208.391  208.865  209.198  208.155  207.521  211.714  215.864  210.684  199.249  191.833  185.895  185.969  182.999  182.196  181.758  181.004  182.847  181.069  181.696  183.056  181.703  182.485  183.522  185.685  186.606  185.415  183.588  183.458  175.692  172.613  171.935  169.708  170.636  168.417  167.116  167.027  166.371  166.451  166.661  164.568  167.286  165.859  165.628  165.476  164.070  167.643  164.789  164.346  165.563  165.278  165.576  165.766  166.368  165.426  167.713  165.732  166.680  166.116  165.868  167.322  167.508  166.309  167.414  167.617  167.838  167.656  169.972  166.535  166.140  168.302  168.392  167.483  166.276  166.403  167.464  169.687  167.303  174.276  172.892  166.123  165.555  166.346  165.368  166.002  166.325  165.744 
DATE 2017:094:10:36:17 obsn  85 az 146 el 42 freq_MHz  1420.4000 Tsys 145.521 Tant 28.984 vlsr  -44.51 glat -0.195 glon 25.118 azoff 0.00 eloff 0.00 source G25.0 
Fstart 1419.397 fstop 1421.403 spacing 0.009375 bw    2.400 fbw    2.000 MHz nfreq 256 nsam 5242880 npoint 214 integ    16 sigma    0.371 bsw 0
Spectrum     15 integration periods
 165.769  165.458  165.148  166.199  164.462  165.123  163.554  165.379  164.630  164.742  164.495  164.313  164.319  163.750  163.975  164.987  166.443  165.009  165.928  166.478  166.689  165.066  165.425  165.605  165.977  165.266  165.633  165.393  167.371  165.453  165.471  165.141  164.951  164.668  165.044  164.322  164.443  165.270  163.971  165.189  165.055  165.312  164.427  164.285  164.462  164.422  164.876  164.004  164.197  164.432  165.638  163.909  163.919  164.398  165.161  164.453  164.004  164.367  164.461  164.304  164.703  163.551  165.960  166.062  163.498  164.821  165.115  166.560  168.330  182.936  167.773  168.749  169.882  170.396  171.282  174.543  174.238  174.806  176.935  178.250  179.294  180.861  180.969  182.125  183.892  183.238  183.219  183.917  184.354  183.772  182.394  182.262  182.344  181.292  180.544  181.295  182.663  180.939  180.641  181.159  180.392  181.159  182.696  183.380  185.018  186.075  186.332  187.355  187.295  188.821  188.257  189.496  190.389  190.849  192.294  193.672  192.996  194.341  195.691  194.237  196.648  197.216  199.000  203.096  207.161  208.623  209.425  207.867  207.379  207.236  207.118  205.801  207.398  210.921  214.491  209.357  196.745  190.037  183.624  183.606  180.940  180.269  179.070  178.953  180.362  179.380  179.367  180.026  180.368  181.027  182.300  183.706  185.067  183.337  181.025  182.487  175.388  172.603  171.505  169.642  169.349  167.509  166.867  166.596  166.152  166.011  165.846  165.102  166.052  166.257  164.996  165.971  164.459  166.638  164.974  165.160  164.506  164.940  164.508  165.211  165.087  165.625  167.026  165.120  166.595  165.548  165.994  165.405  165.476  165.521  166.785  165.852  165.646  166.091  167.590  165.746  165.430  166.062  165.416  166.147  165.250  165.948  166.714  167.418  166.581  174.647  173.110  166.103  165.627  166.084  165.666  166.169  166.037  165.347 
* entered azoff 0.000000 eloff 0.000000
DATE 2017:094:10:36:38 obsn  86 az 143 el 43 freq_MHz  1420.4000 Tsys 145.521 Tant 29.189 vlsr  -44.60 glat -0.192 glon 27.618 azoff 0.00 eloff 0.00 source G27.5 
Fstart 1419.397 fstop 1421.403 spacing 0.009375 bw    2.400 fbw    2.000 MHz nfreq 256 nsam 5242880 npoint 214 integ     8 sigma    0.544 bsw 0
Spectrum      7 integration periods
 164.464  163.920  163.459  164.945  164.544  163.258  162.716  163.880  163.917  164.198  163.215  163.752  163.136  163.284  163.540  165.795  164.383  162.991  162.701  164.238  164.617  163.469  163.862  164.283  164.755  164.614  163.780  163.507  164.894  163.557  163.342  162.566  162.481  164.245  162.700  163.613  162.548  163.610  162.502  162.841  162.266  163.534  162.304  163.511  163.504  163.758  162.407  163.572  162.881  163.046  164.226  163.634  163.646  163.053  165.359  163.025  163.057  163.265  164.146  164.006  163.294  163.552  164.100  165.545  163.549  163.469  163.153  163.825  164.854  175.506  172.108  169.533  167.766  167.449  167.295  169.171  170.855  172.092  173.530  175.859  177.212  178.165  180.327  181.811  184.637  183.376  184.079  184.323  184.653  185.022  184.237  183.015  183.391  183.303  182.041  183.841  183.352  182.991  182.179  184.087  183.563  184.838  184.185  184.516  185.739  187.470  187.398  187.516  187.239  186.827  188.578  190.394  192.174  192.707  192.857  191.380  191.823  192.453  192.946  191.428  193.695  195.788  197.308  201.632  203.443  205.222  206.367  204.668  204.610  205.323  204.592  201.539  204.101  209.024  212.201  206.881  193.612  184.529  180.421  180.399  178.648  178.847  179.370  179.555  176.879  178.461  177.771  177.986  179.164  178.941  181.279  184.190  184.275  183.037  182.360  182.445  177.713  174.890  173.699  171.387  170.612  168.873  166.862  166.681  166.718  167.148  166.460  165.247  165.582  165.706  165.406  165.888  165.915  165.909  165.257  165.649  164.733  165.921  164.614  165.690  166.296  165.449  165.056  166.051  166.698  166.278  164.984  164.271  166.271  164.657  166.117  165.659  165.849  165.263  165.874  165.596  165.069  165.806  166.968  166.429  167.347  165.543  166.016  166.899  165.815  167.701  166.285  167.009  165.959  166.361  166.156  167.192  166.104  166.114 
DATE 2017:094:10:36:51 obsn  87 az 143 el 43 freq_MHz  1420.4000 Tsys 145.521 Tant 30.387 vlsr  -44.60 glat -0.192 glon 27.618 azoff 0.00 eloff 0.00 source G27.5 
Fstart 1419.397 fstop 1421.403 spacing 0.009375 bw    2.400 fbw    2.000 MHz nfreq 256 nsam 5242880 npoint 214 integ    19 sigma    0.349 bsw 0
Spectrum     17 integration periods
 165.124  164.267  163.971  164.996  164.087  163.675  163.148  163.892  164.067  163.774  163.487  163.836  163.741  163.021  163.286  164.527  164.548  163.283  163.049  163.566  164.360  163.591  163.699  164.322  164.560  164.068  163.978  163.810  164.332  163.817  163.670  163.113  163.003  163.654  162.850  163.172  162.886  163.417  162.806  163.039  162.502  163.579  162.881  163.172  163.344  163.434  163.035  163.245  163.533  163.294  164.420  163.810  163.590  163.385  164.934  164.043  163.124  163.825  164.288  163.748  163.493  163.462  164.479  165.864  164.152  163.860  163.612  165.218  165.116  175.921  171.344  168.884  167.515  167.110  167.691  169.664  171.086  172.438  173.709  176.108  177.472  178.844  180.957  181.727  184.531  183.573  184.268  184.195  184.618  184.648  184.098  183.551  183.927  183.544  183.103  183.619  183.290  183.526  183.176  184.129  184.665  184.845  184.794  184.955  185.831  187.821  187.835  187.476  187.465  187.867  188.819  190.155  191.462  193.034  192.782  191.757  191.632  192.223  193.173  192.551  194.125  195.449  198.457  202.313  203.761  205.436  206.355  205.030  205.343  204.878  204.272  201.958  204.001  208.537  211.609  206.451  194.371  185.531  181.307  180.873  178.698  178.977  178.713  179.114  177.612  178.293  177.865  178.932  180.206  179.618  182.113  184.060  184.285  183.615  182.215  182.613  178.600  175.497  174.449  171.907  171.064  168.865  168.292  167.745  167.312  167.341  166.785  166.268  166.805  166.351  166.090  166.503  165.640  166.264  165.630  166.201  165.078  166.012  165.386  165.282  166.070  165.154  165.632  165.912  166.223  165.729  164.983  164.639  165.943  164.820  165.997  165.261  165.905  165.448  165.978  166.175  165.029  165.490  166.340  165.977  166.639  166.069  166.329  166.447  166.704  167.641  166.940  167.301  166.832  167.019  166.953  167.711  167.257  167.304 
* entered azoff 0.000000 eloff 0.000000
DATE 2017:094:10:37:20 obsn  88 az 141 el 45 freq_MHz  1420.4000 Tsys 145.521 Tant 30.670 vlsr  -44.61 glat -0.188 glon 30.118 azoff 0.00 eloff 0.00 source G30.0 
Fstart 1419.397 fstop 1421.403 spacing 0.009375 bw    2.400 fbw    2.000 MHz nfreq 256 nsam 5242880 npoint 214 integ    10 sigma    0.479 bsw 0
Spectrum      9 integration periods
 164.961  164.501  164.497  165.814  164.366  163.848  164.425  164.817  163.488  164.782  164.538  164.079  163.664  163.868  164.338  164.150  165.517  164.604  164.075  163.548  165.084  164.829  165.189  165.521  165.451  164.947  165.412  163.895  165.626  163.683  164.459  164.750  163.875  165.257  165.162  164.489  164.263  165.657  163.502  164.054  164.957  164.651  164.733  164.398  164.031  164.324  164.697  165.317  164.973  164.275  166.077  164.760  164.673  164.110  166.978  165.867  164.642  164.824  164.962  165.273  165.753  165.621  165.729  167.135  164.210  164.751  164.203  166.693  164.639  176.660  173.546  169.465  166.164  167.579  166.487  169.384  169.633  170.601  172.471  174.994  176.017  177.545  180.572  181.365  182.896  183.143  184.577  185.640  186.892  185.969  185.614  186.802  185.741  187.221  185.827  185.901  187.812  187.124  185.852  186.538  186.615  186.389  186.351  186.070  185.496  186.945  185.587  186.622  187.048  188.369  189.955  190.190  191.671  192.971  194.455  194.176  193.238  193.596  195.104  195.150  198.364  200.667  203.492  207.231  208.046  208.940  209.183  208.427  208.892  208.529  208.236  206.435  206.914  208.298  210.447  206.715  193.081  185.082  179.708  178.110  176.493  177.906  177.270  179.313  179.512  179.473  179.329  180.017  180.449  181.619  182.544  183.873  185.114  184.562  184.546  184.539  183.961  182.236  180.506  178.029  176.666  173.057  170.991  170.026  169.583  169.160  167.841  168.033  167.912  167.844  167.061  167.916  166.821  168.598  166.980  166.568  167.143  166.933  167.037  166.369  165.921  165.314  167.193  167.039  165.201  166.131  166.984  166.186  166.181  166.151  166.996  166.588  167.031  167.161  167.550  166.579  167.773  166.925  167.155  166.862  166.709  166.519  167.657  169.163  167.458  173.242  173.305  168.885  167.484  168.536  169.431  169.063  167.559  167.845 
DATE 2017:094:10:37:41 obsn  89 az 138 el 46 freq_MHz  1420.4000 Tsys 145.521 Tant 29.991 vlsr  -44.53 glat -0.184 glon 32.618 azoff 0.00 eloff 0.00 source G32.5 
Fstart 1419.397 fstop 1421.403 spacing 0.009375 bw    2.400 fbw    2.000 MHz nfreq 256 nsam 5242880 npoint 214 integ     1 sigma    1.438 bsw 0
Spectrum      1 integration periods
 164.230  165.294  163.802  162.209  161.867  164.655  168.983  164.312  166.710  160.774  164.100  163.125  160.744  164.016  163.131  163.305  162.092  163.607  166.327  161.733  164.655  164.817  163.853  163.400  164.277  164.980  163.548  166.376  163.652  163.138  163.889  162.624  161.847  163.728  161.781  164.176  163.081  161.329  161.930  163.564  158.497  164.654  164.171  164.735  166.216  163.852  166.361  161.232  164.260  163.510  163.588  164.219  165.275  165.796  165.586  163.168  166.194  162.779  161.835  166.169  163.008  166.948  164.015  167.454  163.675  164.074  163.946  162.230  165.810  178.262  168.003  169.864  165.446  162.813  166.922  166.459  168.264  166.957  167.696  173.089  172.861  176.307  178.594  180.876  183.368  183.969  184.340  187.077  185.661  183.857  188.320  188.706  186.024  192.082  187.903  185.850  184.076  188.070  190.060  184.777  188.346  184.806  186.605  183.003  186.105  183.107  186.011  190.196  185.924  191.002  192.058  191.691  194.582  196.085  193.575  195.291  189.342  191.122  191.671  198.212  198.536  202.692  204.601  205.153  208.967  205.869  208.364  210.197  210.875  210.858  214.287  208.909  205.498  202.741  208.124  200.635  192.463  182.348  178.883  178.740  174.279  175.688  175.787  175.478  178.896  178.270  177.831  180.580  178.038  178.990  178.827  180.242  180.593  179.669  184.093  183.453  179.102  182.275  182.138  177.831  178.605  176.647  176.451  174.495  173.971  171.347  167.816  168.336  167.833  167.789  165.922  164.561  169.351  163.995  166.927  167.477  162.385  165.798  166.188  166.777  162.232  163.846  164.755  166.523  166.657  164.372  166.603  164.203  167.473  164.673  165.223  166.967  164.305  164.264  167.308  166.727  165.793  165.161  169.469  164.417  167.811  167.176  168.763  166.195  172.029  166.792  167.939  165.995  170.290  169.463  166.799  165.150  166.317  166.827 
* entered azoff 0.000000 eloff 0.000000
DATE 2017:094:10:37:55 obsn  90 az 138 el 46 freq_MHz  1420.4000 Tsys 145.521 Tant 29.876 vlsr  -44.53 glat -0.184 glon 32.618 azoff 0.00 eloff 0.00 source G32.5 
Fstart 1419.397 fstop 1421.403 spacing 0.009375 bw    2.400 fbw    2.000 MHz nfreq 256 nsam 5242880 npoint 214 integ    12 sigma    0.434 bsw 0
Spectrum     11 integration periods
 165.160  164.279  164.352  165.137  163.539  164.042  163.429  164.686  164.600  162.930  163.995  162.845  163.433  164.226  163.358  165.277  164.965  163.867  164.474  164.181  164.719  164.182  164.359  164.722  164.382  164.432  164.037  163.688  165.757  163.946  163.684  163.083  163.515  163.620  163.409  162.866  164.345  163.890  163.556  163.765  163.269  165.302  163.726  163.696  163.402  163.081  163.023  163.121  164.086  162.768  165.048  164.079  163.542  164.068  165.105  164.866  165.005  163.811  164.373  164.380  163.632  163.664  165.616  165.511  163.358  164.286  164.670  165.824  165.221  177.582  163.886  169.819  164.471  164.919  165.372  167.543  168.549  168.785  169.770  172.627  174.911  176.904  178.172  180.497  184.441  183.904  185.640  186.920  187.052  187.504  187.613  186.888  187.344  188.620  188.322  188.591  189.372  187.704  188.265  187.149  187.109  185.961  185.118  185.524  184.838  187.879  187.085  188.841  189.840  192.006  191.132  193.863  194.480  194.616  194.842  195.869  193.231  193.282  196.424  197.498  199.114  201.578  205.206  206.618  208.387  206.710  208.684  209.660  211.390  212.757  213.312  209.071  206.727  207.885  206.267  202.165  191.431  182.624  177.082  177.166  174.981  175.850  175.732  176.463  177.410  177.952  177.934  179.708  180.267  179.841  180.525  181.419  184.916  182.776  183.829  183.788  182.239  181.820  180.403  178.507  179.255  175.761  173.016  171.850  170.405  169.761  168.230  167.742  167.413  168.187  166.811  165.860  167.437  167.174  166.253  166.077  166.289  165.526  164.816  166.086  165.255  165.689  167.299  165.514  166.526  165.824  165.942  164.667  165.261  165.475  166.376  164.855  166.282  166.693  168.519  165.865  166.185  167.098  167.432  166.732  167.099  167.050  167.348  168.277  166.799  169.202  169.095  168.053  166.781  167.072  167.833  168.403  166.895  166.426 
* entered azoff 0.000000 eloff 0.000000
DATE 2017:094:10:38:16 obsn  91 az 135 el 47 freq_MHz  1420.4000 Tsys 145.521 Tant 29.603 vlsr  -44.37 glat -0.180 glon 35.118 azoff 0.00 eloff 0.00 source G35.0 
Fstart 1419.397 fstop 1421.403 spacing 0.009375 bw    2.400 fbw    2.000 MHz nfreq 256 nsam 5242880 npoint 214 integ     3 sigma    0.830 bsw 0
Spectrum      3 integration periods
 163.352  163.047  163.899  162.569  162.645  162.860  163.415  162.499  160.910  162.944  162.358  163.575  163.949  162.829  160.290  163.258  163.225  162.372  164.016  162.514  161.975  163.153  163.483  162.822  163.969  162.817  162.519  162.826  163.425  162.636  161.336  163.758  164.773  163.429  162.849  161.475  161.644  162.128  163.087  162.620  163.664  163.762  163.831  163.651  162.691  164.099  163.220  161.674  164.968  163.144  164.120  161.325  161.893  163.101  164.843  164.279  163.380  161.785  162.941  164.500  163.005  163.462  165.058  163.172  163.822  162.214  163.479  165.597  165.390  179.958  167.283  165.471  163.583  164.434  163.981  164.178  164.284  165.849  166.355  168.984  169.678  172.241  173.538  178.920  179.695  179.542  182.251  183.632  184.305  185.277  186.134  184.798  184.258  185.527  186.846  187.042  188.377  187.745  184.395  184.458  185.436  182.822  185.707  182.825  186.985  189.972  188.758  190.662  192.261  194.809  195.066  199.621  195.080  197.827  197.089  197.985  197.467  196.133  199.103  198.175  199.710  201.906  203.559  206.692  206.264  205.236  209.116  209.762  211.381  213.478  213.704  210.438  206.581  207.362  203.176  197.454  184.819  178.958  174.826  175.280  173.088  173.570  171.534  174.115  175.884  176.867  175.312  178.599  177.537  180.094  179.904  179.302  182.293  180.792  180.835  186.224  180.724  181.187  180.073  178.942  179.587  177.327  177.093  173.646  173.184  169.079  168.896  168.999  166.826  168.000  164.926  166.442  166.634  166.539  164.033  166.343  164.852  164.690  165.142  166.627  164.175  164.898  165.972  165.559  164.845  165.618  164.861  164.590  165.729  165.321  167.867  164.058  165.376  166.238  167.425  166.303  166.552  166.019  166.283  165.098  165.774  167.262  165.760  167.360  166.638  173.149  170.781  166.917  166.383  166.696  168.005  169.452  166.462  165.848 
DATE 2017:094:10:38:29 obsn  92 az 135 el 47 freq_MHz  1420.4000 Tsys 145.521 Tant 29.315 vlsr  -44.37 glat -0.180 glon 35.118 azoff 0.00 eloff 0.00 source G35.0 
Fstart 1419.397 fstop 1421.403 spacing 0.009375 bw    2.400 fbw    2.000 MHz nfreq 256 nsam 5242880 npoint 214 integ    14 sigma    0.399 bsw 0
Spectrum     13 integration periods
 163.452  162.881  163.738  164.384  162.984  162.476  163.474  163.780  162.699  162.738  162.156  162.611  162.949  162.406  162.020  163.896  162.924  162.365  163.128  162.669  163.091  163.382  163.511  162.939  163.303  163.156  163.200  163.326  163.753  162.950  162.634  163.397  163.172  163.182  163.022  162.299  162.675  162.285  162.128  162.834  162.447  163.536  162.011  162.630  162.246  162.436  162.245  161.529  163.901  162.793  163.668  161.396  162.517  162.161  163.914  163.386  163.198  162.816  162.643  163.361  162.464  162.658  163.858  163.405  162.377  162.524  162.954  163.631  164.695  179.563  167.340  165.797  163.492  163.719  163.409  165.199  164.811  165.812  166.908  168.967  170.975  172.533  174.298  176.038  178.945  179.357  181.167  182.102  183.239  184.257  184.873  184.460  184.606  185.587  185.857  186.150  187.984  186.210  184.674  184.977  184.475  183.838  182.936  183.994  186.233  188.578  190.230  190.746  193.170  195.470  195.384  197.573  196.401  198.265  197.770  196.890  196.956  196.485  198.670  199.654  200.684  202.682  204.366  205.585  205.262  205.579  207.278  208.030  210.583  212.858  214.037  209.691  206.673  206.123  203.570  196.602  186.942  179.694  174.801  174.632  173.338  173.864  173.108  175.265  175.400  176.087  177.030  177.676  178.232  178.920  179.233  179.880  182.249  181.115  179.922  183.116  180.979  180.476  179.561  178.253  178.969  176.782  174.713  173.145  172.086  169.450  169.183  168.518  167.439  166.964  166.340  166.891  166.984  167.170  163.913  165.059  165.737  164.542  164.869  165.330  164.467  164.867  165.928  165.449  165.316  165.405  165.250  165.250  165.278  165.232  166.369  165.106  164.834  165.904  166.470  165.669  165.616  165.544  166.003  165.301  166.084  165.687  165.610  167.144  166.363  171.699  169.918  166.306  165.817  166.646  166.563  168.043  166.550  166.567 
* entered azoff 0.000000 eloff 0.000000
DATE 2017:094:10:38:50 obsn  93 az 131 el 48 freq_MHz  1420.4000 Tsys 145.521 Tant 29.735 vlsr  -44.12 glat -0.176 glon 37.618 azoff 0.00 eloff 0.00 source G37.5 
Fstart 1419.397 fstop 1421.403 spacing 0.009375 bw    2.400 fbw    2.000 MHz nfreq 256 nsam 5242880 npoint 214 integ     5 sigma    0.643 bsw 0
Spectrum      5 integration periods
 164.363  163.652  164.030  163.808  164.732  163.138  164.318  163.518  163.658  164.667  163.701  164.415  163.577  163.257  163.663  165.020  163.482  163.563  162.647  165.071  164.042  162.565  164.007  164.074  165.634  163.556  164.414  165.070  164.938  162.839  164.788  164.167  163.496  165.104  163.390  164.936  163.714  163.369  164.490  164.237  162.309  164.429  163.132  162.761  162.692  165.246  164.658  163.510  162.839  163.653  164.443  163.808  163.194  162.999  163.421  164.232  164.204  162.682  163.231  163.719  163.372  161.851  163.672  166.062  163.319  163.990  162.303  164.382  165.423  175.367  164.765  165.378  164.679  163.224  163.227  164.416  165.019  164.174  166.031  167.261  166.209  167.958  169.405  168.795  171.867  173.703  173.923  175.476  178.695  179.416  183.257  184.888  185.169  187.207  187.880  188.505  189.970  188.323  188.584  187.867  186.409  187.755  188.092  190.761  191.003  194.829  195.491  197.765  199.009  197.409  199.527  197.872  197.803  200.921  201.434  204.278  205.235  207.157  207.241  206.757  207.303  205.747  206.009  204.389  203.772  204.130  205.525  206.667  209.531  211.018  212.511  210.816  208.510  205.453  202.082  193.341  185.113  178.068  173.703  172.254  170.982  169.589  170.935  170.792  172.125  172.968  174.164  174.928  175.274  179.186  179.169  181.648  179.586  180.835  180.352  181.163  180.615  178.326  178.963  180.591  178.856  178.768  178.575  177.118  175.765  175.038  171.443  168.903  167.597  167.714  166.234  166.314  165.078  164.636  163.580  165.474  165.138  164.813  165.282  163.882  163.964  164.294  165.406  163.408  164.509  163.950  163.891  165.100  163.886  164.225  163.964  163.432  164.668  163.157  164.300  163.616  163.531  163.582  165.255  165.033  164.319  163.970  165.247  164.923  164.905  168.430  167.155  165.187  165.699  165.887  165.858  165.779  164.996  167.104 
* entered azoff 0.000000 eloff 0.000000
DATE 2017:094:10:39:19 obsn  94 az 128 el 49 freq_MHz  1420.4000 Tsys 145.521 Tant 29.677 vlsr  -43.79 glat -0.171 glon 40.118 azoff 0.00 eloff 0.00 source G40.0 
Fstart 1419.397 fstop 1421.403 spacing 0.009375 bw    2.400 fbw    2.000 MHz nfreq 256 nsam 5242880 npoint 214 integ     3 sigma    0.830 bsw 0
Spectrum      3 integration periods
 164.780  165.947  166.458  164.552  164.204  166.118  165.587  164.043  166.598  164.476  165.442  165.534  163.603  163.823  164.546  163.807  162.995  164.701  163.770  165.393  162.260  163.211  165.377  162.886  164.109  165.479  165.803  164.078  163.314  162.596  162.844  163.663  164.101  163.861  163.927  164.380  162.875  162.461  165.230  164.537  162.301  163.099  162.589  161.796  162.513  162.605  163.465  163.893  163.108  162.860  164.623  162.448  163.568  163.472  166.144  163.047  165.294  163.471  163.928  162.955  161.170  163.839  163.346  163.054  163.250  164.367  162.936  164.175  165.584  175.685  161.929  166.005  163.858  163.702  163.603  164.718  163.685  163.865  162.888  165.876  165.482  165.142  167.987  165.634  166.126  168.316  169.015  171.282  171.891  175.020  176.318  178.653  182.076  186.712  184.898  187.685  189.644  190.792  189.946  192.154  191.816  195.036  194.729  195.451  199.488  198.527  200.725  199.620  199.228  200.595  199.016  197.901  200.893  202.950  205.363  207.708  207.857  209.406  211.332  210.412  210.722  209.867  208.094  204.723  204.330  204.961  204.567  205.404  207.931  208.872  209.865  210.209  210.018  207.925  198.958  191.907  183.004  175.426  171.455  170.638  168.975  170.188  170.245  168.964  173.896  172.266  173.504  174.959  176.263  177.857  179.345  183.644  182.898  183.337  183.192  182.370  179.995  180.994  181.548  181.400  183.646  181.665  179.151  182.461  178.173  178.622  175.259  170.957  168.453  168.690  167.377  167.297  165.676  165.796  164.338  166.384  164.922  164.807  163.357  164.141  163.011  165.185  162.816  164.221  165.527  164.285  164.568  165.422  164.876  164.505  163.187  164.517  165.222  165.420  165.526  163.414  164.365  165.331  164.694  164.732  165.609  165.858  164.992  165.203  163.715  186.082  182.751  165.240  163.841  166.269  165.700  166.351  165.453  165.972 
DATE 2017:094:10:39:33 obsn  95 az 128 el 49 freq_MHz  1420.4000 Tsys 145.521 Tant 29.167 vlsr  -43.79 glat -0.171 glon 40.118 azoff 0.00 eloff 0.00 source G40.0 
Fstart 1419.397 fstop 1421.403 spacing 0.009375 bw    2.400 fbw    2.000 MHz nfreq 256 nsam 5242880 npoint 214 integ    14 sigma    0.399 bsw 0
Spectrum     13 integration periods
 164.580  165.182  164.340  164.302  163.811  164.819  163.983  164.108  163.686  163.447  163.255  164.242  162.637  162.971  163.908  162.905  163.080  164.362  163.519  163.367  162.947  163.089  163.520  163.247  163.411  164.273  163.869  163.615  163.795  163.388  163.634  163.006  162.856  163.295  163.521  163.660  162.477  162.224  162.930  163.562  162.518  163.032  163.355  162.466  163.209  163.459  163.337  163.046  162.911  162.419  162.940  163.008  162.831  161.992  163.252  162.327  164.134  163.620  163.332  163.088  161.523  162.853  163.505  163.929  163.053  163.154  163.069  164.287  165.899  175.413  162.483  164.523  162.814  163.308  163.830  163.582  163.371  163.205  163.134  163.982  164.222  164.431  165.308  165.311  166.468  167.294  168.001  170.305  171.447  174.848  175.840  180.025  181.581  184.235  185.098  185.948  187.852  189.080  189.556  190.854  191.464  193.501  194.338  195.274  197.426  197.265  199.192  199.734  198.879  198.722  198.222  198.131  198.729  201.667  204.271  206.530  207.532  209.360  210.725  210.673  210.089  209.749  208.159  205.900  204.439  203.055  202.721  204.624  208.335  208.659  210.381  211.157  209.612  205.894  198.968  190.170  181.901  176.402  172.164  169.833  169.203  170.236  170.519  170.037  171.586  171.637  173.277  175.054  176.193  178.155  179.952  181.862  182.293  182.404  181.770  181.972  180.844  180.238  180.645  180.467  181.789  180.019  179.546  180.216  179.116  177.208  174.224  170.593  168.843  167.792  165.319  165.637  164.726  165.213  164.202  164.683  163.482  163.542  163.497  163.738  163.419  163.448  163.705  163.311  163.909  163.215  163.272  163.944  163.542  164.393  163.221  163.932  164.015  164.219  163.549  164.054  163.838  165.017  163.809  164.189  164.925  164.711  164.437  165.085  164.333  186.451  181.133  164.305  164.262  165.548  165.355  165.784  164.974  165.129 
* entered azoff 0.000000 eloff 0.000000
DATE 2017:094:10:39:54 obsn  96 az 125 el 50 freq_MHz  1420.4000 Tsys 145.521 Tant 29.691 vlsr  -43.37 glat -0.166 glon 42.618 azoff 0.00 eloff 0.00 source G42.5 
Fstart 1419.397 fstop 1421.403 spacing 0.009375 bw    2.400 fbw    2.000 MHz nfreq 256 nsam 5242880 npoint 214 integ     5 sigma    0.643 bsw 0
Spectrum      5 integration periods
 165.231  165.259  164.788  165.218  164.305  163.228  163.537  163.836  162.806  162.692  163.395  163.065  163.933  163.034  164.427  164.395  164.767  162.926  164.394  163.850  164.410  163.043  163.708  164.058  163.964  164.154  164.235  163.343  163.403  163.627  163.862  164.366  162.684  163.965  163.224  162.806  161.578  162.117  163.091  162.450  164.473  163.959  163.317  163.682  163.549  162.203  162.641  162.873  162.512  163.637  164.015  162.575  162.122  161.992  165.005  163.057  163.156  162.608  163.475  162.139  162.584  163.471  163.644  164.547  163.371  162.248  163.283  164.498  166.711  180.965  165.884  163.762  164.084  164.465  162.653  164.712  163.843  163.413  163.736  163.838  163.819  165.262  164.140  164.894  166.620  164.840  166.578  166.047  168.123  169.958  171.854  171.574  176.041  178.214  179.921  183.081  184.435  187.475  191.252  191.118  193.527  196.513  198.541  201.106  201.463  201.002  198.622  200.683  198.571  198.957  197.892  197.139  199.201  200.638  204.119  206.109  208.914  211.238  210.786  210.438  210.146  208.969  208.293  205.571  203.116  203.070  204.765  203.131  206.997  206.569  207.671  208.545  209.706  206.305  197.366  186.795  179.512  175.572  172.013  172.571  171.100  171.348  170.693  171.217  171.043  170.618  172.338  173.468  176.593  179.226  181.624  182.695  184.091  183.537  183.205  184.565  182.801  180.886  182.212  183.134  183.279  182.129  182.815  182.200  181.100  178.314  175.993  173.304  170.443  169.000  167.988  168.022  164.845  165.612  165.144  164.980  164.202  163.696  164.309  164.443  165.304  164.336  164.978  164.231  164.457  163.189  164.509  164.316  164.704  164.060  165.027  163.945  164.211  163.930  163.406  162.396  164.083  165.004  164.827  165.242  163.883  165.372  164.143  165.526  164.718  184.730  180.580  166.393  165.941  165.644  165.321  166.863  163.693  163.944 
DATE 2017:094:10:40:07 obsn  97 az 125 el 50 freq_MHz  1420.4000 Tsys 145.521 Tant 29.315 vlsr  -43.37 glat -0.166 glon 42.618 azoff 0.00 eloff 0.00 source G42.5 
Fstart 1419.397 fstop 1421.403 spacing 0.009375 bw    2.400 fbw    2.000 MHz nfreq 256 nsam 5242880 npoint 214 integ    16 sigma    0.371 bsw 0
Spectrum     15 integration periods
 164.723  164.787  164.540  164.810  164.492  163.943  164.151  164.242  163.574  163.329  163.462  162.929  163.418  163.208  163.837  163.497  164.174  163.842  163.931  163.696  164.116  163.116  163.908  163.901  163.637  163.783  163.739  163.475  164.351  163.509  163.251  163.409  162.822  163.446  163.522  162.769  162.625  163.192  163.165  162.944  163.613  163.279  163.036  163.339  163.328  162.868  163.052  162.620  163.466  163.130  163.545  162.563  162.382  162.592  163.900  163.666  163.990  162.877  162.655  163.162  162.977  162.886  163.785  164.590  162.921  163.380  163.393  164.807  166.010  181.925  166.223  165.207  164.174  163.961  163.387  164.065  163.218  163.384  163.401  163.422  163.894  163.927  163.729  165.043  166.522  165.559  165.998  166.888  167.598  170.471  171.306  172.973  174.649  177.515  179.513  182.442  184.614  187.037  190.509  191.603  194.333  196.678  198.811  200.713  201.590  201.628  200.723  201.086  199.273  198.610  197.737  197.099  200.090  201.295  204.733  206.645  209.564  211.051  212.081  212.086  209.843  208.813  207.736  206.245  204.489  203.056  204.759  203.926  205.822  206.164  208.174  209.913  209.661  205.525  196.568  187.138  179.007  175.435  171.993  171.141  170.261  170.841  170.596  171.679  171.328  171.892  172.370  173.958  176.137  178.595  181.221  183.036  183.870  183.750  183.468  183.835  183.101  181.783  181.811  182.186  182.951  181.834  181.797  181.222  180.680  178.722  176.020  173.421  171.118  169.214  167.918  166.803  165.769  165.837  164.863  164.598  164.254  164.001  164.205  164.634  164.265  163.890  163.893  163.036  164.145  163.453  163.961  163.168  163.338  163.716  164.207  163.690  163.951  164.406  164.097  163.642  163.714  164.819  164.110  164.888  164.558  165.041  164.388  164.654  164.329  183.753  179.892  165.731  165.255  165.334  165.745  166.261  164.314  164.688 
* entered azoff 0.000000 eloff 0.000000
DATE 2017:094:10:40:28 obsn  98 az 121 el 51 freq_MHz  1420.4000 Tsys 145.521 Tant 29.107 vlsr  -42.87 glat -0.160 glon 45.118 azoff 0.00 eloff 0.00 source G45.0 
Fstart 1419.397 fstop 1421.403 spacing 0.009375 bw    2.400 fbw    2.000 MHz nfreq 256 nsam 5242880 npoint 214 integ     8 sigma    0.544 bsw 0
Spectrum      7 integration periods
 164.435  163.635  163.794  164.475  164.573  163.817  162.778  164.136  163.647  163.063  162.573  162.914  162.826  164.521  162.746  162.981  163.337  163.236  162.911  164.122  163.855  163.268  163.698  164.050  164.991  163.439  163.405  162.367  163.063  162.635  164.854  162.376  163.439  164.049  162.417  162.850  162.899  162.274  162.194  162.989  163.654  163.766  163.520  163.205  163.033  163.176  162.245  162.977  162.814  164.304  164.032  162.409  163.011  161.184  164.232  164.087  165.183  163.176  163.108  162.611  162.714  162.120  162.631  164.805  162.079  162.867  162.218  163.312  164.607  185.689  166.025  166.930  162.802  163.084  162.284  164.904  163.696  164.018  162.758  164.354  163.840  163.195  163.062  162.864  163.102  163.389  165.020  164.473  165.367  165.869  166.647  168.930  170.094  170.931  171.922  174.028  178.433  181.673  185.453  190.754  194.374  198.401  199.576  203.248  202.379  206.508  205.153  203.671  201.375  201.232  198.932  198.602  198.666  199.993  203.118  205.063  207.480  207.292  209.894  208.926  206.956  207.041  205.199  206.039  206.696  206.420  203.394  202.844  204.375  203.154  208.411  211.010  210.580  205.742  193.902  184.015  178.165  175.520  171.901  171.184  170.294  170.491  171.269  171.850  172.131  171.695  171.797  175.512  174.439  174.985  178.858  180.082  181.348  181.410  181.383  184.391  182.722  183.502  181.847  183.560  183.931  183.754  182.700  182.692  181.465  180.139  178.062  175.553  173.651  171.216  169.879  169.122  166.103  166.630  165.382  164.989  165.176  164.207  164.921  164.331  163.846  163.315  163.719  164.069  164.495  164.924  163.899  163.059  164.737  163.511  164.765  164.032  163.949  164.631  164.679  163.228  163.204  164.203  163.686  164.195  163.936  163.636  163.439  164.953  164.247  165.058  163.662  163.923  165.406  164.708  165.064  164.993  163.900  164.393 
DATE 2017:094:10:40:41 obsn  99 az 121 el 51 freq_MHz  1420.4000 Tsys 145.521 Tant 29.027 vlsr  -42.87 glat -0.160 glon 45.118 azoff 0.00 eloff 0.00 source G45.0 
Fstart 1419.397 fstop 1421.403 spacing 0.009375 bw    2.400 fbw    2.000 MHz nfreq 256 nsam 5242880 npoint 214 integ    19 sigma    0.349 bsw 0
Spectrum     17 integration periods
 164.376  164.201  163.863  164.591  164.066  163.576  163.201  163.411  164.060  163.152  162.338  162.768  162.617  163.980  163.252  163.149  163.237  163.804  163.005  164.134  163.675  163.455  163.439  164.470  164.680  163.676  163.235  163.254  163.604  163.347  164.156  162.903  163.007  163.537  162.403  162.671  163.059  163.051  162.843  163.461  163.025  163.575  163.440  163.116  162.663  163.014  162.346  162.941  163.177  163.200  163.390  161.877  163.108  162.283  164.634  164.338  164.131  163.446  163.369  162.522  163.375  162.628  162.967  164.350  162.243  162.735  162.780  163.619  164.468  184.936  168.400  166.713  162.998  162.833  162.492  164.174  163.758  163.230  163.325  163.774  163.730  163.365  163.335  163.535  163.705  163.540  164.574  164.293  165.176  165.663  166.573  168.280  169.422  170.903  172.405  175.056  178.687  181.573  186.072  190.353  194.632  197.476  200.544  203.141  203.359  205.717  205.194  203.797  201.421  200.489  199.026  198.319  198.612  200.959  202.886  204.621  207.129  207.501  209.118  209.039  207.642  206.879  206.183  205.793  206.326  205.647  203.611  202.224  204.224  203.061  208.490  210.978  210.121  204.752  194.310  183.652  177.263  175.742  171.781  171.081  170.918  171.174  171.799  171.873  172.770  172.168  172.068  174.765  175.068  176.271  178.968  180.188  181.747  181.417  181.976  184.462  182.901  182.674  182.432  182.192  183.464  183.262  182.731  182.724  181.835  179.954  178.034  174.861  173.139  171.108  169.537  168.443  166.343  166.377  165.332  165.230  164.797  164.401  164.407  164.242  163.947  163.546  163.509  163.866  164.011  164.391  163.851  163.824  163.955  163.543  163.964  163.912  164.007  164.684  164.652  163.791  163.508  164.135  163.295  164.249  163.858  163.807  163.946  164.429  164.601  164.799  164.247  164.646  165.031  164.565  164.757  164.924  164.874  164.316 
* entered azoff 0.000000 eloff 0.000000
DATE 2017:094:10:41:02 obsn 100 az 117 el 52 freq_MHz  1420.4000 Tsys 145.521 Tant 29.697 vlsr  -42.29 glat -0.155 glon 47.618 azoff 0.00 eloff 0.00 source G47.5 
Fstart 1419.397 fstop 1421.403 spacing 0.009375 bw    2.400 fbw    2.000 MHz nfreq 256 nsam 5242880 npoint 214 integ    10 sigma    0.479 bsw 0
Spectrum      9 integration periods
 162.959  163.939  162.196  163.543  163.108  163.485  163.480  163.407  162.379  162.011  162.018  163.786  162.742  162.048  162.660  161.972  163.051  161.999  162.339  164.426  162.432  162.578  164.044  164.190  164.151  162.917  163.069  162.762  162.138  163.022  163.062  162.712  162.324  163.360  162.627  162.744  162.220  162.904  162.295  162.518  163.200  163.056  162.477  162.332  163.087  162.587  162.912  163.228  162.137  161.937  163.994  162.301  162.849  162.936  165.141  163.894  164.077  162.252  163.332  164.144  163.345  163.661  163.504  166.929  162.946  162.966  162.558  164.143  165.920  187.689  170.176  165.352  164.145  163.912  163.562  163.684  163.478  162.725  162.794  163.589  163.684  163.903  164.285  163.822  164.073  164.210  163.437  163.695  165.249  165.513  165.719  166.092  167.072  168.018  170.029  171.908  174.161  177.801  181.398  185.635  191.072  195.483  199.567  203.093  206.583  207.573  207.957  207.124  207.198  204.715  204.773  202.637  201.068  202.686  201.485  200.637  201.040  202.501  204.094  203.890  205.921  207.796  208.057  208.163  208.289  206.916  206.313  206.968  207.593  207.643  212.956  215.097  212.532  204.675  196.657  185.400  178.027  176.092  171.045  169.983  170.718  170.303  171.392  171.621  172.571  171.609  171.891  172.690  173.762  175.342  177.108  179.448  180.947  182.497  182.325  183.411  183.286  183.853  184.805  185.483  184.724  185.252  186.548  185.485  184.044  182.551  180.819  178.564  175.575  175.659  172.844  171.665  170.316  168.496  168.064  167.188  165.579  165.037  165.214  165.464  165.476  165.937  165.026  166.543  165.218  165.624  164.960  164.787  164.566  165.114  164.818  164.550  164.414  165.636  165.582  165.111  165.276  165.603  165.931  165.715  166.552  164.752  166.071  165.139  165.698  166.901  167.101  165.796  165.739  166.175  166.135  166.485  165.454  165.053 
DATE 2017:094:10:41:24 obsn 101 az 113 el 53 freq_MHz  1420.4000 Tsys 145.521 Tant 26.967 vlsr  -41.63 glat -0.149 glon 50.118 azoff 0.00 eloff 0.00 source G50.0 
Fstart 1419.397 fstop 1421.403 spacing 0.009375 bw    2.400 fbw    2.000 MHz nfreq 256 nsam 5242880 npoint 214 integ     1 sigma    1.438 bsw 0
Spectrum      1 integration periods
 161.759  162.095  163.394  159.898  162.340  160.058  164.180  160.722  162.674  159.176  161.997  161.170  160.725  162.973  162.227  160.025  160.549  159.920  160.226  161.298  160.665  160.899  162.536  162.350  161.960  163.198  163.261  158.874  162.544  163.335  163.720  159.626  162.741  159.562  161.255  162.865  161.852  160.271  164.517  160.777  159.925  161.294  159.944  158.763  162.213  161.303  159.517  163.425  159.306  159.392  163.302  161.261  161.654  161.587  162.718  162.939  161.286  162.529  161.895  161.312  161.461  163.304  159.895  167.674  163.075  162.637  159.370  162.096  161.356  186.947  162.322  163.636  162.676  160.851  160.375  160.676  162.487  158.873  162.114  161.457  161.846  160.979  160.325  164.095  160.692  159.966  161.609  161.972  163.889  163.785  163.412  164.327  162.023  165.967  165.348  166.483  168.477  170.527  176.151  181.055  184.182  186.932  192.761  195.454  198.942  200.014  209.211  203.758  206.658  202.337  203.804  203.285  198.930  199.979  200.272  199.474  196.562  196.069  196.045  190.507  199.260  201.190  203.456  209.245  206.330  202.403  205.100  206.199  209.744  212.215  213.245  214.806  212.357  203.214  194.144  184.032  174.092  176.935  170.453  167.678  165.138  167.608  168.216  171.689  169.991  165.065  166.828  168.876  170.992  172.161  172.042  172.932  178.193  173.117  179.588  178.234  182.167  180.300  185.061  180.279  179.915  183.557  183.917  185.016  180.118  180.880  177.548  174.962  174.219  174.140  174.199  168.255  170.882  163.979  166.162  164.679  166.278  160.904  161.042  162.193  162.698  160.061  161.091  161.111  162.545  164.642  162.956  159.605  165.931  163.387  163.756  164.886  163.034  160.179  162.803  162.666  163.569  164.069  163.988  164.718  162.610  164.269  162.836  164.418  162.270  165.163  165.934  165.570  163.248  164.063  164.872  164.437  164.577  162.754 
* entered azoff 0.000000 eloff 0.000000
DATE 2017:094:10:41:45 obsn 102 az 114 el 53 freq_MHz  1420.4000 Tsys 145.521 Tant 27.456 vlsr  -41.63 glat -0.149 glon 50.118 azoff 0.00 eloff 0.00 source G50.0 
Fstart 1419.397 fstop 1421.403 spacing 0.009375 bw    2.400 fbw    2.000 MHz nfreq 256 nsam 5242880 npoint 214 integ    12 sigma    0.434 bsw 0
Spectrum     11 integration periods
 161.979  162.260  162.078  161.466  162.181  161.292  162.413  161.040  160.987  161.390  161.424  160.574  161.130  161.642  161.528  161.662  160.809  161.562  161.198  161.817  162.130  161.511  161.775  161.347  161.682  162.009  161.603  161.511  163.136  161.896  160.939  160.432  161.359  160.778  162.133  161.343  160.830  161.341  160.789  160.939  160.765  161.192  161.159  160.883  160.814  161.420  160.697  161.662  161.121  161.342  162.134  161.790  161.961  161.741  163.520  162.790  161.909  161.522  161.955  161.531  160.706  161.905  161.171  165.037  162.316  161.504  160.810  161.896  162.793  186.254  169.900  164.412  162.761  161.170  161.575  162.190  162.139  161.473  161.769  161.304  161.795  162.424  162.594  161.959  162.610  162.574  162.862  162.000  163.840  163.543  162.861  163.033  163.905  164.463  166.397  166.310  169.418  171.257  175.319  180.932  184.836  188.145  194.429  196.768  199.620  203.069  204.965  205.701  206.516  205.785  204.963  203.295  202.465  199.701  198.548  197.167  195.816  195.228  195.590  197.286  199.517  203.013  205.093  207.514  205.824  205.711  206.101  206.365  208.218  208.845  212.519  215.136  211.133  204.397  193.344  183.503  175.970  173.229  170.600  170.126  168.394  168.528  168.709  168.579  168.345  167.412  169.185  169.955  170.844  171.908  172.287  174.456  176.633  177.014  178.094  180.058  181.377  181.295  181.826  181.875  182.872  181.687  181.147  181.496  181.025  179.787  177.984  174.888  175.413  173.405  172.689  171.098  169.034  168.716  167.781  166.111  164.527  164.913  163.888  163.618  162.873  162.099  163.839  162.731  163.892  163.169  163.448  162.741  163.392  162.143  163.090  162.625  162.488  163.678  162.822  163.181  162.869  163.982  163.913  162.947  162.928  163.257  163.376  164.152  163.139  164.984  164.971  163.624  163.442  162.841  163.608  164.427  164.047  163.019 
* entered azoff 0.000000 eloff 0.000000
DATE 2017:094:10:42:14 obsn 103 az 110 el 53 freq_MHz  1420.4000 Tsys 145.521 Tant 27.306 vlsr  -40.89 glat -0.142 glon 52.618 azoff 0.00 eloff 0.00 source G52.5 
Fstart 1419.397 fstop 1421.403 spacing 0.009375 bw    2.400 fbw    2.000 MHz nfreq 256 nsam 5242880 npoint 214 integ    10 sigma    0.479 bsw 0
Spectrum      9 integration periods
 162.946  163.528  163.856  163.452  162.972  162.677  162.180  163.170  162.194  162.406  162.897  163.315  162.353  162.414  162.602  162.948  162.860  161.942  162.798  162.716  161.842  162.270  162.390  164.730  164.396  162.785  161.772  161.738  163.191  162.262  162.487  162.910  162.541  162.574  162.888  162.269  160.834  162.117  161.437  161.605  161.201  161.834  161.487  161.208  161.770  161.149  161.883  162.017  161.755  162.339  162.210  162.262  161.980  161.934  165.642  163.001  161.319  162.501  162.039  162.349  162.255  161.516  162.394  163.914  160.987  161.589  160.735  162.192  163.768  192.133  164.431  163.700  162.631  163.104  161.786  162.772  161.766  161.143  162.199  162.547  162.001  162.773  162.071  162.234  163.034  162.270  162.658  162.527  163.481  162.930  162.666  164.154  163.669  163.659  164.406  165.747  168.756  170.421  173.960  177.866  183.864  188.021  191.993  194.709  199.282  202.011  205.989  207.205  208.975  210.209  208.490  206.362  204.671  203.403  199.685  198.450  196.928  196.451  195.704  196.498  199.485  202.940  206.119  208.022  206.077  205.167  208.591  209.039  212.858  214.851  218.715  215.144  209.096  202.568  192.400  182.868  176.063  173.218  171.801  170.452  168.613  169.226  168.855  169.109  169.006  169.058  168.455  168.827  170.333  171.636  172.143  173.892  174.578  175.509  176.051  178.807  180.540  181.907  182.125  183.631  183.928  183.084  182.420  180.577  179.849  178.761  176.824  174.765  172.870  172.806  170.939  169.641  169.141  168.248  166.798  165.827  163.555  163.552  164.079  162.985  163.143  163.984  162.973  162.486  163.342  162.793  162.963  161.627  162.501  161.990  161.956  162.573  162.085  161.708  162.129  162.102  162.684  162.966  162.493  162.224  162.973  161.091  163.306  162.900  162.116  162.727  162.356  162.863  162.060  163.254  162.772  163.538  161.738  163.493 
* entered azoff 0.000000 eloff 0.000000
DATE 2017:094:10:42:35 obsn 104 az 105 el 54 freq_MHz  1420.4000 Tsys 145.521 Tant 25.629 vlsr  -40.08 glat -0.136 glon 55.118 azoff 0.00 eloff 0.00 source G55.0 
Fstart 1419.397 fstop 1421.403 spacing 0.009375 bw    2.400 fbw    2.000 MHz nfreq 256 nsam 5242880 npoint 214 integ     8 sigma    0.544 bsw 0
Spectrum      7 integration periods
 161.382  162.452  160.823  161.655  160.463  160.371  161.301  160.925  159.985  161.052  160.428  160.392  161.496  160.825  161.131  160.866  161.100  160.808  161.472  160.321  160.969  160.684  161.304  161.077  162.185  160.658  160.734  160.784  160.846  161.018  161.144  161.268  161.215  160.910  160.839  160.635  160.981  161.147  161.251  159.701  161.127  160.264  160.137  160.750  160.000  160.624  160.447  160.785  160.673  160.363  159.400  160.798  161.312  161.189  163.337  161.085  162.618  161.472  161.704  161.297  159.684  160.801  160.463  161.500  159.669  161.096  160.932  161.585  163.074  176.172  164.211  162.588  160.038  161.415  160.291  161.418  162.117  160.853  160.231  159.744  160.883  161.278  160.107  161.141  161.833  161.312  160.546  161.212  162.546  162.739  162.354  163.595  162.316  162.200  162.157  162.278  164.508  165.273  166.472  168.223  171.801  174.342  177.337  181.591  184.295  187.877  191.073  194.100  195.933  197.423  199.417  200.060  199.338  199.557  197.699  196.449  197.026  197.582  195.952  197.724  197.423  199.878  202.592  202.875  201.516  202.276  204.725  208.967  215.076  219.694  219.461  215.637  206.454  198.621  190.184  184.120  179.799  176.089  173.979  171.868  170.265  170.160  168.278  168.769  167.593  167.551  168.317  167.831  169.511  170.117  170.761  172.397  174.350  174.269  176.025  179.591  180.871  180.015  180.957  181.571  182.125  182.203  182.654  182.741  181.265  179.501  178.333  175.403  175.073  173.916  171.242  169.867  170.423  169.612  169.074  167.502  167.536  167.293  165.651  164.854  164.440  163.051  163.707  163.295  162.958  161.232  161.692  162.184  163.292  162.057  161.917  161.669  161.073  161.021  161.991  163.192  162.741  163.007  161.251  162.684  162.409  161.521  162.188  162.596  162.479  163.742  162.820  162.652  164.012  162.463  163.869  162.556  162.505  162.946 
DATE 2017:094:10:43:04 obsn 105 az 101 el 54 freq_MHz  1420.4000 Tsys 145.521 Tant 24.819 vlsr  -39.18 glat -0.129 glon 57.618 azoff 0.00 eloff 0.00 source G57.5 
Fstart 1419.397 fstop 1421.403 spacing 0.009375 bw    2.400 fbw    2.000 MHz nfreq 256 nsam 5242880 npoint 214 integ     1 sigma    1.438 bsw 0
Spectrum      1 integration periods
 159.728  158.285  159.033  162.967  158.968  159.477  158.652  161.195  159.027  160.044  159.389  159.248  159.832  161.011  161.140  159.118  161.432  162.266  160.162  161.449  161.981  159.880  161.014  159.711  157.593  158.976  159.230  160.746  160.647  162.280  161.387  161.606  161.063  160.097  162.388  156.885  161.305  159.299  161.571  163.428  158.631  159.718  160.238  159.484  160.813  160.138  159.474  161.021  159.867  162.683  160.195  159.659  157.641  159.619  163.165  161.184  161.760  163.313  160.193  158.337  158.434  160.389  162.040  160.590  162.447  162.344  159.857  158.998  162.447  179.169  171.692  164.217  161.297  160.533  159.570  162.404  162.206  161.416  159.098  158.409  161.207  160.015  160.010  162.136  164.376  160.704  159.419  160.781  159.033  161.846  161.462  163.220  160.451  165.098  161.584  161.400  162.899  162.218  165.185  164.384  166.513  166.990  169.038  171.560  171.065  180.554  175.387  181.299  183.502  184.986  190.199  188.945  196.839  198.533  197.495  196.097  198.851  198.998  199.211  196.503  202.104  203.573  201.369  200.683  199.592  200.174  207.383  211.673  215.079  219.528  217.097  211.624  202.569  194.566  189.682  185.847  180.250  178.402  176.878  173.773  171.379  170.885  169.285  166.298  166.364  169.552  167.866  166.043  171.480  172.856  167.477  169.886  169.680  174.889  173.463  169.471  176.812  180.822  177.790  179.151  182.797  180.424  182.932  184.716  184.121  181.347  181.341  175.842  174.410  176.647  173.215  169.989  171.757  169.635  167.951  170.195  169.681  164.112  166.198  166.613  164.204  163.679  161.072  161.752  165.340  161.685  160.023  162.686  161.977  163.391  162.412  161.458  160.908  161.441  160.570  165.231  163.363  162.182  163.709  161.686  160.070  161.460  160.775  164.115  160.132  164.598  165.677  164.813  161.356  161.131  161.089  162.308  164.209  161.447 
* entered azoff 0.000000 eloff 0.000000
DATE 2017:094:10:43:18 obsn 106 az 101 el 54 freq_MHz  1420.4000 Tsys 145.521 Tant 24.938 vlsr  -39.18 glat -0.129 glon 57.618 azoff 0.00 eloff 0.00 source G57.5 
Fstart 1419.397 fstop 1421.403 spacing 0.009375 bw    2.400 fbw    2.000 MHz nfreq 256 nsam 5242880 npoint 214 integ    12 sigma    0.434 bsw 0
Spectrum     11 integration periods
 161.170  160.886  161.311  160.704  162.125  161.534  160.608  160.803  160.778  161.111  161.549  160.121  160.839  160.084  161.136  160.732  161.798  160.860  161.277  160.925  160.913  161.249  160.811  161.328  160.220  161.036  161.112  161.292  161.579  161.782  160.944  161.615  162.026  161.238  160.756  160.793  160.908  161.200  160.548  161.062  160.581  161.246  160.910  161.085  160.281  160.643  160.743  161.216  161.175  160.800  160.784  160.495  160.616  160.635  162.649  161.239  161.792  161.263  161.000  161.958  160.453  160.557  161.454  161.805  161.177  161.233  160.586  161.485  164.949  183.224  163.949  163.070  161.556  161.262  161.829  161.801  161.620  161.611  160.470  161.068  161.616  161.967  161.594  161.782  162.142  162.199  162.062  161.242  161.841  161.544  162.385  162.098  161.833  162.929  162.056  162.066  163.706  163.816  163.992  164.292  167.088  167.887  170.959  172.627  174.667  177.829  179.032  182.865  184.410  187.513  190.193  193.731  196.924  198.285  199.399  199.843  199.763  199.798  201.494  201.006  201.951  201.123  202.855  202.577  202.503  201.827  206.941  212.463  217.822  219.832  215.110  209.913  202.446  195.948  191.058  186.098  183.184  179.381  176.563  175.737  173.414  171.518  170.255  169.247  168.289  167.809  167.480  166.943  167.991  169.237  168.087  169.598  171.540  173.615  173.698  176.356  177.497  179.161  179.853  182.299  183.846  184.415  185.764  185.676  184.348  182.741  181.233  179.222  176.344  176.419  175.038  173.255  171.716  170.631  169.806  169.142  168.031  167.341  167.402  166.138  165.660  164.220  163.441  162.672  164.008  162.871  162.857  162.938  163.687  162.869  161.866  162.062  161.871  161.718  161.999  162.589  162.629  162.288  163.422  163.018  162.196  162.788  162.739  163.423  162.806  164.430  164.213  163.134  163.867  163.538  162.888  163.613  163.206  163.041 
* entered azoff 0.000000 eloff 0.000000
DATE 2017:094:10:43:39 obsn 107 az  97 el 54 freq_MHz  1420.4000 Tsys 145.521 Tant 23.404 vlsr  -38.22 glat -0.122 glon 60.118 azoff 0.00 eloff 0.00 source G60.0 
Fstart 1419.397 fstop 1421.403 spacing 0.009375 bw    2.400 fbw    2.000 MHz nfreq 256 nsam 5242880 npoint 214 integ     3 sigma    0.830 bsw 0
Spectrum      3 integration periods
 160.918  158.578  161.133  160.477  161.710  159.050  161.215  161.548  160.632  160.884  160.224  158.534  159.201  160.549  159.105  159.098  159.738  160.381  161.089  160.012  159.844  157.988  160.852  159.730  160.207  159.587  160.972  159.454  159.351  160.965  159.164  158.693  157.850  159.772  159.601  159.436  160.382  158.855  159.571  159.683  157.645  159.292  159.059  159.233  159.579  158.940  160.779  158.015  158.284  159.926  160.549  159.837  160.811  159.435  159.664  158.281  158.809  157.868  160.025  159.127  158.779  159.977  158.611  160.975  159.495  159.260  159.619  158.611  162.354  179.028  162.303  161.031  159.882  159.860  159.722  159.656  160.241  158.994  159.280  160.511  159.171  159.123  158.640  159.158  159.945  160.426  162.639  159.687  159.658  160.845  160.861  162.110  159.506  161.080  160.371  160.403  160.748  161.146  161.589  161.386  161.320  162.035  163.282  165.248  165.521  167.700  168.707  171.308  175.709  177.011  180.322  183.967  185.968  190.853  193.942  196.089  198.924  200.210  199.367  201.941  199.834  201.943  203.795  202.494  203.894  206.307  208.836  212.230  218.057  216.650  209.598  205.212  202.164  191.551  188.944  185.824  182.726  180.705  178.185  175.093  173.980  172.609  169.139  169.027  166.647  167.654  166.554  163.774  163.419  163.390  164.452  166.046  166.861  167.708  169.663  172.599  173.167  176.453  177.786  179.387  179.936  181.961  183.229  184.365  184.704  185.015  181.795  180.195  178.293  175.385  175.094  172.250  172.577  170.474  168.160  168.435  167.496  163.860  165.380  162.204  164.350  163.805  161.967  161.200  160.475  160.028  159.296  159.090  160.639  161.680  160.466  160.977  160.224  160.313  160.481  158.733  158.963  159.867  161.300  160.453  160.248  159.715  160.312  161.617  158.915  164.223  163.412  162.437  160.677  160.780  160.058  159.955  160.944  160.112 
DATE 2017:094:10:43:52 obsn 108 az  97 el 54 freq_MHz  1420.4000 Tsys 145.521 Tant 23.269 vlsr  -38.22 glat -0.122 glon 60.118 azoff 0.00 eloff 0.00 source G60.0 
Fstart 1419.397 fstop 1421.403 spacing 0.009375 bw    2.400 fbw    2.000 MHz nfreq 256 nsam 5242880 npoint 214 integ    14 sigma    0.399 bsw 0
Spectrum     13 integration periods
 160.047  159.930  160.661  160.086  160.257  160.106  159.451  159.962  160.110  159.436  159.109  159.599  159.429  159.842  159.133  159.341  159.505  159.431  160.095  160.250  159.144  159.733  159.907  159.960  159.963  160.273  159.608  159.985  159.739  159.667  159.990  160.350  158.856  159.662  159.267  158.755  159.335  159.793  159.955  159.017  159.221  158.513  159.118  158.814  159.570  159.319  159.186  158.277  158.154  159.665  159.111  159.554  159.899  158.871  160.441  159.365  159.806  159.108  159.712  159.645  159.165  159.662  159.173  161.310  159.126  158.872  159.616  159.892  162.089  177.818  162.251  162.168  160.119  159.671  159.617  159.527  159.640  158.983  159.535  160.023  159.822  159.827  159.645  159.710  160.237  160.089  160.243  159.825  160.127  159.740  159.913  160.989  160.260  159.992  160.331  160.479  160.724  160.924  160.487  160.775  161.775  162.677  163.478  164.567  165.877  166.280  168.657  171.538  173.921  177.713  180.196  184.009  187.168  191.194  193.635  196.551  198.828  200.680  201.011  201.254  201.336  201.713  202.355  202.364  203.189  205.001  208.857  213.949  217.460  216.465  211.759  204.832  199.257  193.065  188.557  185.331  181.420  180.543  177.253  175.967  174.035  172.415  170.133  169.295  167.875  166.959  165.895  165.509  164.279  164.133  165.536  165.388  166.732  166.940  169.091  172.076  173.326  175.866  177.817  179.309  180.625  182.404  183.636  183.745  183.382  184.297  182.008  179.666  177.353  175.044  174.521  172.530  171.300  170.276  168.649  166.986  166.630  164.299  164.490  163.858  162.862  163.335  161.828  160.907  161.370  160.332  159.827  160.191  160.188  160.937  159.855  160.328  160.353  160.165  160.433  159.663  160.357  160.436  160.717  160.715  160.777  160.184  160.285  160.253  160.193  164.990  163.975  161.329  160.548  160.998  160.412  160.960  160.732  160.300 
* entered azoff 0.000000 eloff 0.000000
DATE 2017:094:10:44:13 obsn 109 az  93 el 54 freq_MHz  1420.4000 Tsys 145.521 Tant 24.542 vlsr  -37.18 glat -0.114 glon 62.618 azoff 0.00 eloff 0.00 source G62.5 
Fstart 1419.397 fstop 1421.403 spacing 0.009375 bw    2.400 fbw    2.000 MHz nfreq 256 nsam 5242880 npoint 214 integ     5 sigma    0.643 bsw 0
Spectrum      5 integration periods
 160.190  161.221  160.798  162.208  160.265  161.343  159.592  160.754  161.323  160.023  160.123  159.706  159.864  160.107  160.367  161.831  160.492  161.382  161.477  162.806  160.516  160.306  161.740  161.423  163.220  160.950  161.934  160.651  161.048  161.710  162.460  160.639  160.892  160.991  161.113  161.131  161.438  161.282  160.555  160.338  159.810  160.004  160.984  160.746  161.522  160.326  161.531  160.130  161.408  160.671  162.290  160.377  160.685  159.061  161.101  160.890  161.395  159.465  160.670  159.807  159.324  160.848  160.443  162.271  161.472  160.348  160.149  160.744  161.759  173.271  166.328  162.587  162.417  160.559  160.372  160.687  161.179  160.683  160.642  160.703  161.229  162.131  160.966  162.085  161.633  160.047  161.438  160.194  163.266  162.282  161.499  161.950  161.274  160.041  160.652  161.981  161.563  160.361  161.100  160.385  162.491  161.397  161.954  163.094  164.034  163.104  164.751  165.763  168.725  170.066  173.295  177.248  181.558  184.341  188.687  192.742  196.758  200.265  203.215  203.624  204.828  204.242  204.260  207.616  208.274  210.941  216.510  220.684  223.498  217.516  213.212  204.053  199.055  193.431  188.648  187.776  182.779  182.474  179.504  180.109  178.446  174.535  172.837  171.270  169.732  168.344  167.511  167.536  166.206  165.931  166.960  165.900  166.432  167.001  167.752  169.484  172.663  175.610  177.593  179.930  180.510  183.596  182.255  185.542  185.676  186.016  184.543  182.638  182.111  179.720  177.330  175.155  173.689  172.043  170.627  169.793  166.461  165.915  165.100  164.853  163.894  164.667  162.769  163.627  163.066  162.397  160.288  162.655  162.293  160.531  162.207  161.330  161.367  159.395  160.469  161.425  160.753  160.863  161.288  161.610  161.843  161.288  162.537  161.943  160.054  163.374  163.702  161.380  161.580  161.514  161.405  161.685  160.690  161.208 
DATE 2017:094:10:44:26 obsn 110 az  93 el 54 freq_MHz  1420.4000 Tsys 145.521 Tant 25.400 vlsr  -37.18 glat -0.114 glon 62.618 azoff 0.00 eloff 0.00 source G62.5 
Fstart 1419.397 fstop 1421.403 spacing 0.009375 bw    2.400 fbw    2.000 MHz nfreq 256 nsam 5242880 npoint 214 integ    16 sigma    0.371 bsw 0
Spectrum     15 integration periods
 161.506  161.391  161.065  161.776  161.390  161.549  160.521  160.996  161.076  160.664  161.159  161.243  160.684  160.852  160.871  161.552  160.667  160.585  161.277  161.708  161.205  161.029  161.591  161.278  162.179  161.151  160.935  160.894  161.809  161.062  161.483  160.960  160.708  160.609  161.431  161.334  160.642  160.831  161.029  160.173  159.908  160.115  161.079  160.827  160.836  160.857  160.999  160.520  161.208  161.075  162.073  160.865  160.566  160.196  162.043  161.271  160.894  160.362  160.802  160.949  160.166  160.453  160.525  162.926  160.822  160.355  160.717  161.787  162.883  173.130  167.225  162.850  161.807  160.896  160.760  161.116  160.942  160.554  160.491  161.011  160.505  161.484  161.329  161.697  161.664  160.533  161.541  160.708  161.356  162.152  161.461  161.656  161.447  160.567  160.965  161.586  161.292  161.129  161.294  161.323  162.079  161.784  162.396  162.873  163.734  163.816  165.177  166.589  169.436  171.352  174.603  177.641  181.165  185.215  188.658  192.655  197.512  200.684  203.353  204.247  204.614  205.116  205.503  206.953  208.564  211.893  216.268  220.176  222.950  217.581  212.476  204.826  198.673  193.600  189.554  186.556  183.959  182.162  180.151  180.126  178.276  174.742  172.841  171.546  170.144  168.689  167.519  167.719  166.709  165.770  165.968  165.837  166.921  166.679  167.598  170.949  172.554  174.946  178.082  180.393  181.568  183.427  183.665  186.633  186.679  186.273  184.774  182.597  181.175  179.877  177.222  175.480  173.572  172.050  170.452  168.782  167.013  166.574  164.974  165.064  165.012  163.865  163.533  163.833  163.522  162.523  161.448  161.657  161.576  161.016  161.258  161.504  160.842  160.069  161.416  161.232  160.663  161.528  161.099  161.433  161.232  160.409  161.349  161.920  160.537  164.330  163.887  160.886  161.685  161.011  161.108  161.780  160.825  161.395 
* entered azoff 0.000000 eloff 0.000000
DATE 2017:094:10:44:48 obsn 111 az  89 el 54 freq_MHz  1420.4000 Tsys 145.521 Tant 22.542 vlsr  -36.07 glat -0.107 glon 65.118 azoff 0.00 eloff 0.00 source G65.0 
Fstart 1419.397 fstop 1421.403 spacing 0.009375 bw    2.400 fbw    2.000 MHz nfreq 256 nsam 5242880 npoint 214 integ     8 sigma    0.544 bsw 0
Spectrum      7 integration periods
 161.062  159.990  160.898  161.519  160.960  161.663  161.196  161.070  160.006  160.249  160.203  160.242  160.451  160.898  160.458  160.864  160.498  160.854  160.001  160.458  160.527  160.749  160.425  160.454  160.170  160.296  160.940  158.565  160.905  159.593  159.852  158.697  160.478  159.140  158.499  159.114  158.566  157.886  158.323  159.494  159.934  158.861  158.203  159.098  159.508  159.755  157.602  158.686  159.892  158.361  160.130  159.517  158.672  159.748  160.526  159.533  160.096  159.740  158.681  158.760  160.114  158.999  160.307  163.270  159.999  160.173  159.930  160.855  161.364  165.508  163.367  164.832  159.981  159.878  159.354  159.735  159.867  160.411  159.504  158.370  159.564  159.803  158.924  159.159  159.601  160.178  159.828  157.995  159.458  160.359  159.427  158.821  159.781  158.942  158.669  159.820  159.066  159.227  158.571  160.244  159.337  158.640  159.315  160.314  159.945  160.024  160.861  161.113  163.418  164.168  168.090  169.791  172.170  175.382  179.292  183.225  189.512  194.717  200.570  201.917  205.249  206.035  207.571  208.596  211.188  214.092  219.673  222.949  221.582  217.280  208.160  202.752  194.923  191.019  184.813  183.179  179.881  178.968  178.961  177.117  175.139  173.895  171.868  170.258  168.144  166.472  165.873  164.965  165.414  164.529  164.507  165.566  164.671  165.059  165.613  169.888  168.370  170.854  173.281  176.321  179.008  182.012  183.175  186.108  187.156  187.517  186.722  185.989  184.146  181.932  178.912  175.393  173.422  170.950  170.220  168.657  165.994  165.927  165.312  164.196  163.875  164.950  163.213  163.572  163.062  162.240  161.631  160.730  160.743  160.320  159.035  160.006  159.176  159.305  160.739  159.227  159.384  160.199  159.205  159.739  158.950  159.718  159.249  159.752  159.564  163.722  164.343  160.878  160.304  161.262  159.879  161.370  161.502  160.947 
DATE 2017:094:10:45:01 obsn 112 az  89 el 54 freq_MHz  1420.4000 Tsys 145.521 Tant 23.020 vlsr  -36.07 glat -0.107 glon 65.118 azoff 0.00 eloff 0.00 source G65.0 
Fstart 1419.397 fstop 1421.403 spacing 0.009375 bw    2.400 fbw    2.000 MHz nfreq 256 nsam 5242880 npoint 214 integ    19 sigma    0.349 bsw 0
Spectrum     17 integration periods
 160.710  160.042  160.597  160.624  160.191  160.907  160.184  159.993  159.659  160.407  159.653  159.742  159.990  159.717  159.647  160.249  160.321  160.424  159.964  160.411  159.873  160.494  159.801  159.786  160.241  160.025  160.619  159.210  160.568  159.514  159.543  159.106  160.298  159.057  159.056  159.157  158.610  158.683  158.972  159.548  158.999  159.517  158.383  159.082  159.069  159.197  157.986  158.843  159.069  158.951  159.498  159.359  159.327  158.820  160.467  159.363  159.834  159.361  159.140  159.046  159.256  158.451  159.782  162.843  158.856  159.028  159.713  159.777  160.857  165.239  163.727  163.696  159.702  159.591  159.211  159.600  159.893  159.272  159.246  158.722  159.336  159.929  159.242  159.632  159.707  159.615  159.602  159.097  159.397  159.616  159.510  158.725  159.454  158.925  158.965  159.646  158.970  159.234  158.714  159.542  158.599  158.538  159.729  159.575  159.390  160.107  160.672  161.403  163.585  165.008  167.831  169.369  172.387  175.431  179.324  183.643  188.723  193.727  199.275  201.847  204.505  205.471  207.138  208.649  211.039  214.026  218.326  221.966  221.225  216.673  208.851  201.976  195.346  190.210  185.273  182.775  180.272  179.434  178.594  177.376  175.765  173.763  171.280  170.333  168.667  166.473  166.402  165.084  164.977  165.121  165.059  165.019  164.268  165.498  165.840  168.696  168.914  170.881  173.885  176.579  178.963  181.341  183.895  186.290  186.951  187.110  187.054  185.210  183.222  181.691  178.063  175.119  172.733  170.663  169.953  168.247  166.344  165.327  164.946  163.485  163.531  163.610  162.614  162.940  162.955  162.014  161.010  160.755  160.653  159.734  159.206  159.988  159.009  159.119  159.651  159.722  159.264  159.730  159.672  159.903  159.594  159.623  159.766  159.942  159.674  164.015  164.198  160.194  160.208  160.564  160.400  161.348  161.190  161.071 
* entered azoff 0.000000 eloff 0.000000
DATE 2017:094:10:45:22 obsn 113 az  85 el 53 freq_MHz  1420.4000 Tsys 145.521 Tant 22.353 vlsr  -34.89 glat -0.099 glon 67.618 azoff 0.00 eloff 0.00 source G67.5 
Fstart 1419.397 fstop 1421.403 spacing 0.009375 bw    2.400 fbw    2.000 MHz nfreq 256 nsam 5242880 npoint 214 integ    10 sigma    0.479 bsw 0
Spectrum      9 integration periods
 160.155  159.482  159.882  160.844  160.670  159.751  159.788  159.293  159.410  158.969  159.931  160.193  160.118  159.878  159.131  159.531  160.070  159.383  159.494  159.507  159.869  159.614  159.789  160.169  159.109  158.968  159.100  160.001  159.539  160.179  159.534  158.582  160.226  159.290  159.152  159.174  159.452  159.533  159.791  159.757  158.368  158.738  157.711  158.027  158.703  158.997  158.746  158.568  158.577  159.443  158.885  159.754  159.213  158.291  160.042  159.362  158.941  158.783  158.618  159.088  158.757  158.838  159.164  163.733  158.498  159.584  158.755  159.336  159.195  163.948  163.718  162.663  159.610  159.543  158.990  159.735  159.340  159.456  159.233  159.612  159.053  159.563  159.223  159.217  160.345  160.014  159.861  159.067  160.208  159.404  159.041  159.074  159.503  159.009  159.146  158.915  159.747  158.980  159.034  158.161  157.885  158.456  159.513  159.122  159.486  158.489  159.793  160.247  161.714  161.197  163.807  165.219  165.674  168.329  170.504  175.597  180.396  185.490  191.983  198.583  202.861  207.272  211.308  215.669  217.740  223.683  225.136  227.386  225.964  220.253  211.697  202.627  195.972  191.097  186.571  184.560  181.815  180.969  181.352  178.752  177.906  175.648  173.020  170.637  169.245  166.671  167.031  165.427  165.062  165.685  165.272  165.342  165.683  166.745  167.458  171.656  170.965  172.197  173.085  175.558  180.012  183.005  186.370  188.364  189.328  190.048  187.278  187.302  183.365  179.456  175.970  172.040  169.731  167.504  167.160  165.708  165.020  164.223  162.764  162.490  163.303  162.125  162.318  161.772  161.708  160.377  160.221  161.714  159.769  160.479  159.967  159.731  159.189  159.646  159.392  159.122  158.281  160.641  160.185  160.187  160.970  161.031  160.176  160.874  160.583  176.518  172.946  160.751  160.820  161.145  160.540  160.623  161.075  160.219 
DATE 2017:094:10:45:43 obsn 114 az  81 el 53 freq_MHz  1420.4000 Tsys 145.521 Tant 22.644 vlsr  -33.64 glat -0.091 glon 70.118 azoff 0.00 eloff 0.00 source G70.0 
Fstart 1419.397 fstop 1421.403 spacing 0.009375 bw    2.400 fbw    2.000 MHz nfreq 256 nsam 5242880 npoint 214 integ     1 sigma    1.438 bsw 0
Spectrum      1 integration periods
 158.082  162.952  160.316  161.165  161.469  158.778  158.113  161.072  160.082  158.191  159.976  158.482  158.992  159.011  158.580  158.155  158.813  161.126  159.500  159.793  157.703  157.807  157.623  159.189  157.317  159.214  160.373  159.144  157.422  161.004  157.055  158.790  159.976  158.447  160.526  158.191  158.212  159.329  156.430  156.872  158.187  159.715  160.156  158.895  157.406  157.583  157.209  155.990  157.918  159.616  156.036  157.218  157.104  155.533  156.644  161.509  158.421  159.415  160.361  161.186  156.618  157.702  159.221  165.821  156.200  158.890  156.138  157.753  161.336  161.458  167.348  163.788  158.404  159.504  159.590  159.393  157.384  159.120  159.499  159.359  159.720  158.650  160.208  156.967  160.302  159.363  159.639  159.755  159.538  162.326  159.622  159.286  161.196  157.723  158.418  160.340  156.596  157.770  160.085  160.005  161.512  158.788  158.230  158.421  158.721  160.455  159.437  160.929  160.718  159.062  160.000  162.789  164.757  166.764  167.436  171.049  174.234  176.562  184.009  186.765  195.468  202.738  209.991  215.361  223.508  224.160  232.628  227.552  231.653  224.269  218.422  204.581  198.926  199.601  190.060  184.385  181.197  180.503  179.422  179.417  177.095  176.110  172.504  170.300  169.481  170.453  165.983  169.431  165.516  165.837  164.602  164.863  167.184  168.137  172.178  173.575  174.284  174.635  176.089  179.768  182.361  189.729  188.582  187.910  193.486  192.674  191.419  187.636  182.426  179.599  175.483  171.056  170.936  166.586  168.082  168.222  166.433  164.301  165.784  167.317  160.348  164.875  161.803  164.094  165.474  161.704  163.056  164.550  161.311  161.655  162.456  159.749  162.551  160.283  159.627  158.061  161.971  161.735  161.979  158.562  159.535  162.237  160.780  161.171  160.619  177.277  174.599  161.431  162.359  162.397  161.822  165.382  163.017  162.894 
* entered azoff 0.000000 eloff 0.000000
DATE 2017:094:10:45:56 obsn 115 az  81 el 53 freq_MHz  1420.4000 Tsys 145.521 Tant 22.611 vlsr  -33.64 glat -0.091 glon 70.118 azoff 0.00 eloff 0.00 source G70.0 
Fstart 1419.397 fstop 1421.403 spacing 0.009375 bw    2.400 fbw    2.000 MHz nfreq 256 nsam 5242880 npoint 214 integ    12 sigma    0.434 bsw 0
Spectrum     11 integration periods
 160.224  160.180  159.420  159.368  159.562  159.087  158.486  159.380  158.255  158.996  159.746  157.770  158.407  158.923  159.220  158.064  158.248  158.984  159.794  158.529  158.602  158.053  158.801  158.855  158.462  158.581  159.673  158.738  159.226  158.952  158.437  158.686  158.681  158.554  159.143  158.729  158.882  157.904  158.085  158.007  158.165  158.693  157.844  158.184  158.180  158.582  158.189  157.686  158.465  157.592  158.796  157.662  157.851  157.539  158.877  158.763  158.413  157.734  158.282  158.780  158.438  157.907  158.365  165.250  158.393  157.898  158.491  158.523  161.962  160.419  166.146  162.978  159.064  158.959  158.650  158.956  158.560  158.748  158.679  158.517  159.214  158.999  159.475  159.508  159.296  158.700  159.044  159.725  159.824  159.706  159.829  158.879  159.197  159.306  159.267  159.344  159.024  159.361  159.249  159.399  159.944  159.556  159.000  158.611  159.472  159.900  160.289  159.561  159.283  159.813  160.810  161.345  162.883  164.540  166.610  169.178  172.850  176.468  183.007  188.706  196.587  202.826  209.225  215.763  220.183  226.787  230.480  231.512  230.412  223.417  216.619  208.022  199.568  194.719  190.681  185.230  183.015  182.688  180.851  179.934  178.405  176.566  175.386  173.422  171.851  169.883  168.207  167.195  167.210  165.571  166.013  166.110  167.390  168.237  170.683  171.831  173.828  175.721  176.811  180.317  182.715  186.538  187.879  190.488  191.790  192.018  190.792  188.298  184.635  179.763  174.843  172.555  169.919  168.667  167.212  167.269  166.039  165.183  165.394  164.458  163.900  164.702  163.649  164.310  164.170  163.621  162.609  162.095  161.321  161.179  161.230  159.998  161.117  160.456  161.041  159.766  160.815  160.864  161.355  159.805  160.958  161.489  161.380  162.340  162.558  177.060  174.098  161.695  161.563  162.161  162.635  162.114  162.396  162.179 
* entered azoff 0.000000 eloff 0.000000
DATE 2017:094:10:46:18 obsn 116 az  77 el 52 freq_MHz  1420.4000 Tsys 145.521 Tant 22.290 vlsr  -32.33 glat -0.083 glon 72.618 azoff 0.00 eloff 0.00 source G72.5 
Fstart 1419.397 fstop 1421.403 spacing 0.009375 bw    2.400 fbw    2.000 MHz nfreq 256 nsam 5242880 npoint 214 integ     3 sigma    0.830 bsw 0
Spectrum      3 integration periods
 159.920  160.589  159.110  159.634  160.723  159.313  159.116  158.687  159.807  160.670  159.845  159.384  157.205  159.381  159.424  157.937  158.343  159.111  158.072  159.426  160.311  157.633  157.986  161.173  158.346  159.917  160.483  158.263  158.432  157.482  158.445  158.721  157.967  157.056  158.498  159.641  157.893  156.979  158.408  158.517  159.337  159.072  158.499  158.393  156.412  158.161  156.766  157.549  157.886  157.749  159.665  157.570  158.796  159.628  157.482  159.405  158.533  158.524  159.375  157.993  159.072  158.022  157.805  162.544  157.452  159.008  159.077  157.285  164.256  161.037  154.205  161.031  158.927  158.938  158.351  157.569  158.312  158.226  159.156  160.366  159.151  158.718  159.529  158.402  158.828  158.672  158.529  159.088  158.561  159.050  159.778  159.761  157.887  159.087  159.835  158.925  158.977  158.840  158.349  159.536  158.246  157.810  159.088  157.171  158.439  159.062  160.229  157.837  158.354  158.704  158.660  159.647  161.015  162.116  163.044  163.471  166.590  173.071  177.289  183.223  189.777  198.231  209.098  215.110  223.290  228.131  232.466  234.205  232.955  227.532  219.387  209.559  203.959  195.344  189.532  185.347  186.234  183.681  181.159  183.529  177.108  178.290  177.401  175.030  173.510  173.678  171.119  169.724  168.146  167.709  167.596  168.255  168.923  169.984  170.166  172.712  175.103  177.347  177.584  179.317  181.466  183.986  185.114  192.847  190.968  193.753  189.714  188.725  183.236  179.046  175.656  170.891  169.639  167.470  164.502  164.650  164.362  164.946  164.023  164.019  162.453  163.681  163.606  163.266  162.375  162.945  161.680  161.495  160.841  160.440  160.193  160.032  160.606  160.948  159.717  161.180  159.167  160.436  160.449  159.554  159.030  160.804  160.065  161.238  160.932  161.046  161.889  161.759  160.650  160.970  161.059  160.313  160.750  161.553 
DATE 2017:094:10:46:31 obsn 117 az  77 el 52 freq_MHz  1420.4000 Tsys 145.521 Tant 22.052 vlsr  -32.33 glat -0.083 glon 72.618 azoff 0.00 eloff 0.00 source G72.5 
Fstart 1419.397 fstop 1421.403 spacing 0.009375 bw    2.400 fbw    2.000 MHz nfreq 256 nsam 5242880 npoint 214 integ    14 sigma    0.399 bsw 0
Spectrum     13 integration periods
 159.913  160.264  158.640  160.122  159.491  159.254  158.988  159.372  159.255  159.285  158.714  158.705  157.930  158.661  159.021  157.381  158.617  159.048  158.634  158.780  159.614  158.079  158.193  159.704  159.095  159.447  159.064  158.118  158.866  158.309  157.968  158.616  157.949  158.623  158.137  158.068  157.664  157.684  158.211  157.420  157.443  158.128  158.576  158.161  157.895  158.344  158.207  157.528  157.780  157.967  158.699  157.831  158.573  158.946  158.329  158.397  158.230  158.108  158.429  157.886  157.566  158.171  158.241  163.802  157.845  157.897  158.582  158.070  163.876  162.171  159.963  160.001  158.454  158.370  157.811  158.722  159.045  157.697  158.410  159.168  158.214  158.018  159.106  158.641  158.441  157.854  157.591  158.648  158.727  158.148  158.555  157.962  157.788  158.394  158.289  158.423  158.273  158.477  158.722  159.295  158.705  157.952  158.618  158.535  157.782  158.712  159.205  157.960  158.122  158.643  158.702  160.195  160.473  161.325  163.161  165.009  167.539  172.417  177.136  182.937  190.218  198.656  207.047  215.524  223.959  229.255  234.156  235.858  234.234  227.515  220.285  210.407  202.676  196.160  191.050  187.831  184.609  183.244  181.042  181.785  178.272  177.611  176.474  175.326  174.129  172.182  169.769  168.998  167.642  166.680  166.627  166.922  167.660  167.790  169.995  173.399  174.139  175.777  176.815  179.791  181.394  184.102  186.345  190.278  190.910  191.935  190.777  188.621  184.633  179.524  175.135  170.508  167.901  167.133  164.415  164.483  164.565  163.577  162.979  163.579  162.474  162.739  162.776  162.985  163.663  161.922  161.582  162.296  160.751  160.231  160.682  160.023  159.249  160.468  160.800  160.487  159.949  160.088  160.449  159.887  159.429  160.148  160.761  160.954  160.383  160.324  161.080  160.703  160.840  161.227  161.149  161.303  160.933  160.876 
* entered azoff 0.000000 eloff 0.000000
DATE 2017:094:10:46:52 obsn 118 az  73 el 51 freq_MHz  1420.4000 Tsys 145.521 Tant 23.593 vlsr  -30.96 glat -0.074 glon 75.118 azoff 0.00 eloff 0.00 source G75.0 
Fstart 1419.397 fstop 1421.403 spacing 0.009375 bw    2.400 fbw    2.000 MHz nfreq 256 nsam 5242880 npoint 214 integ     5 sigma    0.643 bsw 0
Spectrum      5 integration periods
 160.538  160.322  160.725  159.375  160.365  159.582  160.001  158.821  160.634  160.777  160.378  160.210  159.160  158.354  159.183  159.944  159.968  161.202  159.933  159.725  160.547  159.870  160.666  160.665  161.546  159.633  158.967  160.951  161.543  161.072  160.232  159.624  159.140  158.952  158.973  158.686  159.391  159.366  159.486  159.707  159.053  158.826  159.854  160.690  158.672  158.548  159.487  158.670  159.375  158.568  159.228  158.655  160.091  160.072  159.202  159.626  160.434  159.428  160.285  159.514  160.046  159.585  159.229  162.593  160.070  158.761  158.835  159.189  162.957  162.087  167.033  161.807  159.965  160.085  159.102  158.715  160.266  160.095  159.261  159.036  160.044  158.848  160.517  159.968  160.905  160.523  159.974  161.127  160.407  160.646  159.896  160.213  161.182  161.103  160.688  159.475  160.485  160.932  159.938  158.891  159.454  159.524  159.300  159.038  159.447  160.965  159.444  160.096  160.687  159.683  160.897  160.805  161.677  161.937  163.756  165.690  166.184  170.403  174.242  180.113  188.939  196.572  205.700  214.529  225.667  232.499  235.648  239.271  238.538  233.010  225.042  217.977  207.942  198.736  194.792  189.139  186.436  185.830  184.486  182.920  180.787  181.117  180.578  180.342  179.003  175.931  173.075  172.498  171.854  171.760  170.643  170.119  170.067  171.427  172.388  175.385  177.647  179.757  180.395  181.951  183.002  183.528  185.782  188.429  187.985  190.016  189.681  187.657  185.254  182.149  176.827  175.225  172.026  169.140  166.259  164.867  164.941  164.888  163.853  162.833  163.538  164.156  162.610  162.611  164.213  162.398  161.499  160.448  161.760  161.739  161.452  161.318  160.518  161.723  160.104  159.680  159.926  161.274  160.813  160.568  159.862  160.893  161.414  160.309  161.160  166.331  167.017  161.647  161.061  161.268  160.908  160.508  161.415  160.149 
DATE 2017:094:10:47:05 obsn 119 az  73 el 51 freq_MHz  1420.4000 Tsys 145.521 Tant 23.669 vlsr  -30.96 glat -0.074 glon 75.118 azoff 0.00 eloff 0.00 source G75.0 
Fstart 1419.397 fstop 1421.403 spacing 0.009375 bw    2.400 fbw    2.000 MHz nfreq 256 nsam 5242880 npoint 214 integ    16 sigma    0.371 bsw 0
Spectrum     15 integration periods
 160.485  161.007  160.527  160.737  160.576  160.149  160.343  160.031  160.636  160.347  160.152  160.319  159.599  159.253  159.494  159.886  159.538  160.570  159.778  160.268  159.648  160.275  160.279  160.813  161.205  159.913  159.923  160.090  160.944  160.043  160.220  159.690  159.497  159.434  159.133  159.089  159.717  159.741  159.623  160.285  159.314  159.428  159.569  159.600  158.877  158.790  158.801  159.062  159.327  159.005  159.750  159.653  159.541  159.859  159.491  159.858  159.787  159.721  159.729  159.510  159.304  159.135  159.637  162.167  160.052  159.902  158.750  159.021  163.048  162.363  167.607  162.372  159.878  160.237  159.443  158.874  159.747  159.051  160.171  159.214  159.994  159.176  159.677  160.152  160.751  159.922  160.060  160.074  159.780  160.640  160.142  160.273  160.764  160.344  160.356  160.397  160.577  160.439  159.590  159.535  159.705  159.753  160.069  159.151  159.681  160.316  160.226  159.670  160.653  159.968  160.611  160.758  161.067  162.645  163.508  164.566  166.397  170.231  174.829  180.021  188.776  196.686  205.970  215.738  226.300  232.607  236.755  238.399  238.380  233.633  226.293  217.222  207.889  199.801  193.965  188.412  186.672  184.980  183.960  182.645  180.234  181.857  181.198  180.502  179.091  176.601  173.740  173.016  172.509  171.661  170.514  170.434  169.300  170.669  172.668  175.246  177.557  178.970  180.071  181.249  182.403  183.983  185.913  187.589  187.806  190.025  189.240  187.184  184.509  181.779  177.161  173.811  171.020  168.509  166.936  165.935  164.704  163.955  163.705  163.284  163.021  163.266  163.228  162.702  163.585  162.686  162.472  161.615  161.670  161.751  161.187  161.635  160.415  160.801  160.899  160.930  160.881  161.313  161.227  160.948  160.582  160.525  161.306  160.895  161.887  165.755  166.110  161.507  160.866  160.929  161.213  161.372  161.237  160.686 
* entered azoff 0.000000 eloff 0.000000
DATE 2017:094:10:47:34 obsn 120 az  70 el 51 freq_MHz  1420.4000 Tsys 145.521 Tant 22.966 vlsr  -29.53 glat -0.066 glon 77.618 azoff 0.00 eloff 0.00 source G77.5 
Fstart 1419.397 fstop 1421.403 spacing 0.009375 bw    2.400 fbw    2.000 MHz nfreq 256 nsam 5242880 npoint 214 integ     8 sigma    0.544 bsw 0
Spectrum      7 integration periods
 159.833  160.003  159.042  159.904  160.041  159.529  159.045  158.551  158.744  159.190  158.801  157.773  158.592  158.678  159.700  158.336  159.137  158.806  159.073  158.589  158.618  159.618  159.539  160.097  159.265  159.055  158.916  158.185  159.105  159.389  158.303  158.985  159.509  158.508  158.460  157.426  159.179  159.024  158.711  158.816  159.368  158.739  158.529  158.581  159.282  160.097  158.400  157.985  157.744  158.372  159.802  158.514  158.517  158.087  158.047  159.032  158.662  158.441  158.691  157.657  158.010  158.988  158.334  160.843  158.619  158.451  158.956  159.457  161.857  161.522  163.090  161.377  159.346  157.877  158.527  157.932  158.390  159.553  159.229  158.671  159.218  158.346  158.776  158.193  158.931  159.352  159.016  157.886  159.056  159.240  160.140  159.622  159.413  159.514  159.640  158.734  160.240  159.787  159.048  160.406  158.572  158.826  159.999  158.883  158.914  159.282  157.874  159.864  159.642  159.984  159.040  158.881  160.476  161.996  162.287  164.144  166.234  168.922  174.356  179.308  188.194  196.505  206.916  216.322  225.131  232.047  233.172  235.204  233.588  231.771  225.570  218.369  209.793  201.332  195.040  191.026  186.072  184.536  182.437  182.806  182.659  181.879  182.145  182.353  180.487  177.515  175.935  174.695  174.237  174.171  173.403  173.248  171.778  171.833  171.541  175.154  176.553  178.565  179.172  180.984  181.922  183.689  185.341  186.702  188.546  189.099  189.863  188.753  188.142  183.529  179.512  177.918  173.025  170.038  168.257  166.462  164.066  164.653  163.877  163.606  161.956  162.836  162.169  163.692  163.998  163.588  162.491  162.439  161.024  162.296  161.884  161.748  160.505  159.991  161.570  161.111  160.837  161.481  161.549  161.144  161.032  160.578  160.253  161.291  161.454  162.764  162.467  161.144  160.741  161.579  160.462  160.970  160.996  161.447 
DATE 2017:094:10:47:47 obsn 121 az  70 el 51 freq_MHz  1420.4000 Tsys 145.521 Tant 23.594 vlsr  -29.53 glat -0.066 glon 77.618 azoff 0.00 eloff 0.00 source G77.5 
Fstart 1419.397 fstop 1421.403 spacing 0.009375 bw    2.400 fbw    2.000 MHz nfreq 256 nsam 5242880 npoint 214 integ    19 sigma    0.349 bsw 0
Spectrum     17 integration periods
 159.980  159.749  159.924  159.991  160.283  159.721  158.738  159.496  158.779  158.629  159.065  158.396  159.063  159.063  159.548  158.549  159.355  159.136  159.088  158.732  159.229  159.346  159.864  159.852  159.497  158.753  159.099  158.667  159.519  159.489  159.410  159.264  159.051  158.691  158.378  158.531  158.728  159.077  158.568  158.537  158.873  158.766  158.524  158.138  159.087  158.982  158.464  158.503  158.524  158.718  159.600  158.600  158.348  158.654  158.664  159.128  158.840  158.178  158.891  158.130  158.365  158.608  158.676  161.502  158.681  158.456  159.415  159.804  162.503  162.572  165.502  161.321  159.454  158.925  158.796  158.756  158.492  159.396  159.644  159.265  159.194  158.702  158.806  158.699  159.102  159.256  159.376  158.825  159.331  159.648  159.540  159.529  159.735  159.594  159.685  159.292  159.929  159.747  159.086  160.038  159.037  159.200  159.476  159.001  159.496  159.628  158.548  159.782  159.489  160.324  159.677  159.846  160.330  161.591  162.631  164.024  166.548  169.933  174.688  179.573  187.281  196.635  206.959  215.916  224.736  232.146  234.348  235.734  233.693  231.305  226.046  218.903  209.748  202.306  195.308  190.401  186.369  184.519  183.289  182.326  182.359  182.748  182.154  182.183  180.352  178.198  176.660  174.812  174.908  174.219  174.083  173.142  172.405  172.306  172.931  174.976  176.855  179.391  179.998  181.654  182.315  184.493  185.418  186.848  188.726  189.504  190.365  189.400  187.389  183.920  180.304  177.499  173.420  170.341  168.499  166.722  164.610  164.267  163.497  163.614  163.161  163.173  162.643  163.336  163.769  163.115  162.364  162.049  161.658  162.137  161.689  161.343  161.267  160.666  161.120  160.975  160.677  160.719  160.289  160.959  160.813  161.244  160.113  161.572  161.129  163.344  163.247  161.310  161.156  161.392  161.255  161.248  161.368  161.391 
* entered azoff 0.000000 eloff 0.000000
DATE 2017:094:10:48:09 obsn 122 az  66 el 50 freq_MHz  1420.4000 Tsys 145.521 Tant 25.399 vlsr  -28.04 glat -0.057 glon 80.118 azoff 0.00 eloff 0.00 source G80.0 
Fstart 1419.397 fstop 1421.403 spacing 0.009375 bw    2.400 fbw    2.000 MHz nfreq 256 nsam 5242880 npoint 214 integ    10 sigma    0.479 bsw 0
Spectrum      9 integration periods
 162.200  161.313  162.260  161.879  161.684  161.140  160.381  160.569  160.370  161.657  161.254  160.229  161.330  160.922  162.015  161.360  160.784  161.059  161.110  161.694  160.954  160.888  160.835  160.858  160.971  161.387  160.962  161.129  161.842  161.684  161.092  159.605  160.845  160.472  162.109  160.584  160.896  160.235  159.775  160.045  160.515  160.951  161.217  160.334  160.389  160.345  160.896  161.000  159.511  160.597  161.056  160.748  160.724  159.996  160.352  160.442  159.870  160.992  161.375  160.795  160.278  159.683  160.654  164.012  160.567  160.720  160.385  161.047  164.797  160.343  164.621  169.414  161.097  161.030  160.433  159.166  161.017  160.313  160.792  160.257  160.587  160.422  160.703  160.424  160.789  160.874  162.043  161.122  160.153  160.611  160.445  161.243  160.247  160.737  160.930  161.163  160.785  160.269  159.908  160.448  160.658  160.138  159.680  160.561  160.067  160.957  160.374  160.369  161.197  161.232  161.727  161.528  162.423  163.270  164.071  165.931  169.212  173.347  179.612  188.479  198.175  207.740  216.447  225.898  231.050  234.954  233.650  234.825  233.275  232.525  228.707  222.979  216.397  206.489  199.680  194.512  189.833  187.113  185.773  185.749  183.466  184.237  185.256  184.265  184.714  183.906  182.627  180.876  179.791  179.649  179.204  177.649  175.056  174.524  175.200  176.025  176.831  178.317  181.141  183.153  185.773  187.301  187.797  189.066  189.966  190.293  190.140  190.002  188.794  186.543  183.010  180.125  177.323  173.836  171.300  169.590  166.560  167.417  165.902  166.005  165.134  164.874  163.170  164.660  163.924  162.595  163.428  162.291  163.439  162.975  162.106  162.559  162.137  160.492  161.402  161.730  161.210  161.382  161.747  161.394  161.983  162.149  161.349  161.239  161.859  160.707  163.082  161.223  162.231  162.287  162.752  162.742  162.696  161.263 
DATE 2017:094:10:48:30 obsn 123 az  63 el 48 freq_MHz  1420.4000 Tsys 145.521 Tant 24.595 vlsr  -26.50 glat -0.049 glon 82.618 azoff 0.00 eloff 0.00 source G82.5 
Fstart 1419.397 fstop 1421.403 spacing 0.009375 bw    2.400 fbw    2.000 MHz nfreq 256 nsam 5242880 npoint 214 integ     1 sigma    1.438 bsw 0
Spectrum      1 integration periods
 160.859  163.648  162.432  163.529  161.838  163.212  159.910  162.005  160.691  161.012  159.502  162.937  160.145  162.440  159.226  160.233  160.506  159.628  160.967  162.053  162.685  162.985  160.966  162.048  159.481  160.110  161.721  159.261  161.633  160.654  161.774  164.495  161.229  162.312  162.600  162.392  160.883  160.463  161.663  160.972  158.873  160.518  159.604  160.190  158.276  161.183  161.330  159.724  160.698  159.742  161.253  159.073  160.977  160.436  159.223  161.775  160.811  160.056  161.271  160.689  159.225  159.487  158.062  162.009  161.758  160.038  159.033  157.973  162.690  162.153  155.702  165.180  160.737  159.042  160.035  160.128  160.363  160.898  160.359  160.017  158.097  163.052  160.830  158.116  159.434  161.913  161.279  159.656  160.073  161.585  159.527  160.750  160.968  162.625  162.628  161.744  160.692  160.196  158.670  157.939  160.098  160.810  161.681  160.000  160.310  158.972  160.059  158.566  159.138  159.655  162.732  159.348  160.295  163.466  166.622  168.018  173.135  176.853  182.342  197.469  211.041  220.649  228.527  228.447  230.795  228.993  232.451  232.684  230.288  230.993  228.346  219.884  212.724  200.323  193.810  187.323  182.111  179.791  179.666  177.446  176.780  176.958  178.289  183.772  184.017  183.177  182.950  186.081  185.088  180.625  182.713  178.758  178.807  174.359  172.579  171.583  171.719  174.141  176.675  181.730  186.467  186.159  188.833  186.099  186.285  184.711  182.267  178.787  178.603  176.368  179.387  176.261  171.164  173.136  172.577  168.241  163.472  164.340  164.402  164.238  164.627  161.228  164.630  161.353  161.075  161.673  159.517  165.885  162.323  162.113  161.848  159.996  159.387  162.860  160.174  163.141  162.444  160.445  162.239  161.134  161.823  161.753  160.458  160.619  161.171  162.967  164.212  159.424  159.284  162.229  160.546  161.964  162.819  161.689 
* entered azoff 0.000000 eloff 0.000000
DATE 2017:094:10:48:43 obsn 124 az  63 el 48 freq_MHz  1420.4000 Tsys 145.521 Tant 24.688 vlsr  -26.50 glat -0.049 glon 82.618 azoff 0.00 eloff 0.00 source G82.5 
Fstart 1419.397 fstop 1421.403 spacing 0.009375 bw    2.400 fbw    2.000 MHz nfreq 256 nsam 5242880 npoint 214 integ    12 sigma    0.434 bsw 0
Spectrum     11 integration periods
 161.878  161.929  162.128  162.221  161.422  161.930  161.407  161.189  161.190  161.525  161.085  161.220  160.566  161.671  160.304  161.239  161.441  161.503  161.921  161.039  161.109  161.470  160.954  161.145  161.060  161.006  160.792  161.615  162.088  160.877  161.163  161.732  160.564  160.947  161.677  161.297  160.726  160.335  160.298  160.514  159.613  161.180  160.304  160.601  160.403  160.182  160.929  160.385  161.042  160.246  160.508  160.559  160.603  160.857  161.347  160.713  160.491  160.030  160.490  160.398  159.468  160.356  160.332  163.623  160.260  160.088  159.574  159.760  162.270  160.672  161.637  164.228  160.864  160.113  159.694  159.326  160.046  159.899  160.542  160.476  159.944  160.272  160.584  160.552  160.201  160.352  160.610  160.178  160.373  161.197  160.857  160.793  160.059  160.322  160.747  159.764  159.662  160.213  159.896  160.223  159.662  159.904  160.274  160.587  160.351  159.395  158.892  160.448  159.714  160.527  161.537  161.850  161.733  163.476  165.765  168.024  171.849  177.624  184.869  197.524  209.769  219.864  227.344  230.599  230.686  233.353  233.373  232.566  230.216  228.310  224.818  218.933  210.934  202.278  194.122  187.336  184.544  180.730  179.809  178.572  178.584  179.488  180.834  183.356  184.706  184.997  184.413  185.438  186.028  184.237  182.996  180.798  178.192  175.962  173.200  173.467  173.398  175.190  177.840  181.701  183.308  184.519  185.776  185.981  184.970  182.706  182.245  180.889  179.430  179.033  177.042  175.904  172.728  172.302  169.878  167.581  164.589  164.034  164.501  164.539  163.502  162.587  162.178  162.764  162.468  162.324  160.966  160.391  160.859  161.320  160.955  161.525  161.543  160.889  160.445  161.065  161.327  161.500  161.067  160.275  160.486  160.902  160.955  161.556  160.918  161.866  162.773  160.912  161.195  161.041  161.074  162.281  160.801  161.358 
* entered azoff 0.000000 eloff 0.000000
DATE 2017:094:10:49:12 obsn 125 az  60 el 47 freq_MHz  1420.4000 Tsys 145.521 Tant 22.810 vlsr  -24.91 glat -0.040 glon 85.118 azoff 0.00 eloff 0.00 source G85.0 
Fstart 1419.397 fstop 1421.403 spacing 0.009375 bw    2.400 fbw    2.000 MHz nfreq 256 nsam 5242880 npoint 214 integ     3 sigma    0.830 bsw 0
Spectrum      3 integration periods
 160.725  159.681  159.712  160.671  160.629  160.620  160.822  161.090  158.176  159.799  159.219  158.606  158.817  157.710  159.843  158.409  159.421  159.436  159.496  160.629  159.402  158.645  160.828  159.155  159.383  158.919  160.948  160.284  158.550  161.191  159.528  159.451  159.724  158.801  157.905  158.040  157.504  157.938  159.177  159.541  159.215  160.169  158.808  156.922  156.868  158.701  158.362  159.134  159.106  158.965  159.393  159.809  157.746  158.937  158.819  158.837  157.787  159.234  158.606  158.922  158.089  157.140  159.489  161.366  158.344  159.360  159.642  159.218  158.805  159.610  163.481  165.989  159.783  158.202  156.628  159.305  159.871  157.639  158.345  159.820  160.204  158.579  156.956  159.017  159.162  159.009  157.581  157.582  158.828  159.744  159.985  158.099  156.586  156.965  158.941  160.171  158.725  158.574  159.226  157.866  158.457  159.172  157.331  157.645  158.656  157.927  158.901  157.514  158.499  158.729  158.936  160.184  159.865  162.429  162.662  165.982  171.042  176.673  184.217  192.596  206.172  217.898  223.711  223.789  225.892  225.507  226.548  225.880  225.985  219.367  218.517  215.914  206.400  198.903  192.378  185.141  179.204  175.244  175.333  173.696  174.043  176.484  178.397  180.990  184.458  187.157  187.135  190.298  190.878  186.041  185.354  182.338  180.932  177.727  174.628  172.427  171.989  171.755  176.125  179.521  181.162  184.684  183.162  185.206  185.016  184.149  180.996  182.270  177.015  176.222  175.261  176.401  172.754  170.706  169.414  166.681  163.475  163.426  163.498  164.071  162.163  162.107  160.241  162.334  160.415  161.090  162.156  163.297  161.585  161.326  159.737  159.575  159.948  158.917  161.457  160.629  160.541  159.048  159.219  159.405  158.993  158.818  161.165  159.170  159.823  161.518  161.651  160.187  161.916  162.052  159.809  161.752  158.760  161.018 
DATE 2017:094:10:49:25 obsn 126 az  60 el 47 freq_MHz  1420.4000 Tsys 145.521 Tant 22.954 vlsr  -24.91 glat -0.040 glon 85.118 azoff 0.00 eloff 0.00 source G85.0 
Fstart 1419.397 fstop 1421.403 spacing 0.009375 bw    2.400 fbw    2.000 MHz nfreq 256 nsam 5242880 npoint 214 integ    14 sigma    0.399 bsw 0
Spectrum     13 integration periods
 160.665  159.904  160.083  159.997  160.644  160.036  160.572  160.296  159.266  159.191  159.546  159.791  159.278  158.062  158.934  159.524  158.930  159.233  159.279  159.802  160.110  158.970  160.367  159.615  159.718  159.283  159.569  159.494  159.162  159.240  159.811  159.477  159.381  158.590  158.697  159.015  158.226  158.640  158.880  159.133  158.906  158.941  159.219  158.050  158.180  158.900  158.157  158.259  158.127  159.073  159.017  158.185  157.645  158.159  158.138  158.538  158.575  158.389  158.269  158.660  158.035  158.605  158.904  161.004  158.358  158.291  159.201  159.430  159.420  158.850  160.992  165.706  158.783  157.829  157.710  157.811  158.984  158.159  157.895  157.747  158.470  158.050  158.336  159.660  158.546  158.946  158.793  157.822  158.846  159.548  158.938  158.709  158.207  158.401  158.604  158.453  157.884  158.232  158.707  157.781  158.328  158.253  158.140  157.746  158.633  158.252  158.744  158.648  158.232  159.396  159.420  159.084  160.697  162.204  162.974  165.985  170.275  176.115  184.662  195.579  207.161  218.425  223.714  225.432  226.084  224.587  225.615  224.700  223.648  220.427  217.830  214.426  206.700  198.148  190.677  185.123  179.049  176.562  175.131  173.963  174.611  175.258  178.207  181.098  184.562  186.810  188.696  189.559  189.195  187.220  185.584  182.186  178.392  175.636  174.206  173.063  171.883  171.867  174.902  178.352  181.386  183.070  184.465  184.744  184.623  184.126  181.834  179.757  178.132  176.711  175.915  175.056  171.502  170.416  168.639  166.506  164.484  163.137  162.422  161.680  162.165  162.427  161.160  161.703  160.894  160.412  160.938  160.661  159.886  159.879  159.415  159.810  159.432  159.527  159.541  160.198  159.980  159.286  158.928  159.912  159.986  159.495  159.810  159.946  159.469  160.585  160.586  160.151  160.351  160.632  160.241  160.495  160.564  160.363 
* entered azoff 0.000000 eloff 0.000000
DATE 2017:094:10:49:47 obsn 127 az  57 el 46 freq_MHz  1420.4000 Tsys 145.521 Tant 22.343 vlsr  -23.27 glat -0.031 glon 87.618 azoff 0.00 eloff 0.00 source G87.5 
Fstart 1419.397 fstop 1421.403 spacing 0.009375 bw    2.400 fbw    2.000 MHz nfreq 256 nsam 5242880 npoint 214 integ     5 sigma    0.643 bsw 0
Spectrum      5 integration periods
 159.095  158.519  159.187  157.716  158.861  158.570  157.209  157.870  157.153  156.841  157.646  158.549  157.023  157.909  158.280  157.725  158.176  156.612  156.357  157.472  159.115  158.454  157.823  156.930  157.512  157.783  157.983  157.858  157.503  157.109  158.593  157.312  158.497  157.558  157.121  158.073  158.213  158.326  156.037  157.370  157.240  157.161  157.218  156.496  156.626  156.470  156.766  157.184  157.184  158.004  157.640  156.994  156.603  156.487  158.056  157.476  156.831  158.752  157.057  157.983  156.883  156.295  157.728  158.980  157.413  157.908  156.461  159.562  157.351  161.354  159.629  158.675  158.212  158.436  158.318  157.432  157.604  158.727  157.760  157.981  157.787  157.312  156.732  157.368  158.580  158.482  158.535  158.267  159.506  158.531  157.719  158.148  157.609  158.435  158.755  157.985  158.999  159.032  157.592  157.066  157.561  158.585  158.626  157.723  158.408  158.600  158.630  158.261  157.982  158.325  157.784  159.653  159.367  160.099  162.024  165.282  168.007  172.655  179.617  188.522  200.434  212.265  215.967  218.260  220.801  217.801  216.925  217.172  215.180  214.828  211.888  209.902  204.306  199.029  192.258  185.970  182.380  179.158  174.731  173.959  175.148  175.713  179.039  182.694  186.656  189.632  192.047  192.897  190.035  189.123  188.177  184.148  182.083  178.442  176.933  173.450  174.290  176.407  177.395  180.129  183.208  185.286  187.313  187.795  188.850  188.232  184.013  180.934  179.713  179.883  177.790  175.255  173.527  171.329  169.105  168.199  164.251  164.663  163.467  164.169  162.532  163.232  163.079  161.775  161.328  162.393  160.165  162.882  160.173  161.545  161.117  160.416  160.660  160.327  161.024  160.288  160.546  160.778  160.196  160.283  161.507  159.761  160.234  159.780  160.953  161.689  162.433  161.173  161.832  161.604  161.204  160.061  161.311  161.259 
DATE 2017:094:10:50:00 obsn 128 az  57 el 46 freq_MHz  1420.4000 Tsys 145.521 Tant 22.598 vlsr  -23.27 glat -0.031 glon 87.618 azoff 0.00 eloff 0.00 source G87.5 
Fstart 1419.397 fstop 1421.403 spacing 0.009375 bw    2.400 fbw    2.000 MHz nfreq 256 nsam 5242880 npoint 214 integ    16 sigma    0.371 bsw 0
Spectrum     15 integration periods
 158.817  158.874  158.754  158.732  158.558  157.782  157.249  158.149  157.721  157.481  157.906  157.857  157.103  157.537  157.825  157.834  158.656  157.564  156.693  157.648  157.874  158.251  157.576  157.708  157.707  157.874  158.453  158.098  158.371  157.678  157.754  157.386  158.030  158.112  157.511  157.120  157.937  158.051  156.592  157.295  157.002  157.418  157.231  156.820  156.813  157.562  157.062  158.028  157.623  157.679  157.587  157.217  156.529  157.056  158.059  157.145  156.952  158.039  157.810  158.108  157.371  157.263  157.839  160.321  157.026  157.565  157.253  159.136  157.336  162.709  160.105  158.779  158.425  157.819  157.896  157.517  158.063  158.281  157.547  157.906  157.781  157.233  157.496  157.598  158.597  157.822  158.166  157.873  159.184  158.738  157.923  157.842  157.835  158.520  158.075  157.234  158.575  158.046  157.636  157.361  157.935  158.411  158.435  158.074  158.588  158.800  157.731  157.856  158.334  158.853  158.837  159.760  159.791  161.036  162.686  164.812  168.000  173.139  179.871  188.825  200.829  210.951  215.710  218.347  219.144  217.202  217.294  216.938  215.462  214.939  213.370  210.135  204.229  198.370  192.392  186.468  182.171  178.717  175.241  173.938  174.741  176.003  178.361  181.201  185.411  188.744  191.833  191.847  190.647  189.643  187.697  184.771  182.332  178.512  176.651  174.529  174.139  175.196  176.388  180.179  183.007  185.845  187.532  188.764  189.727  187.362  184.800  181.626  180.635  179.182  177.749  175.108  173.296  172.026  169.015  167.909  165.442  164.888  163.695  163.760  162.749  162.653  163.322  161.933  161.606  161.786  160.664  160.642  160.649  160.971  160.487  160.713  160.174  159.703  160.901  161.342  160.484  160.473  160.586  160.398  160.521  160.275  160.369  160.214  161.556  161.485  161.588  161.847  161.034  161.601  161.003  161.308  161.147  161.764 
* entered azoff 0.000000 eloff 0.000000
DATE 2017:094:10:50:21 obsn 129 az  54 el 45 freq_MHz  1420.4000 Tsys 145.521 Tant 22.393 vlsr  -21.59 glat -0.022 glon 90.118 azoff 0.00 eloff 0.00 source G90.0 
Fstart 1419.397 fstop 1421.403 spacing 0.009375 bw    2.400 fbw    2.000 MHz nfreq 256 nsam 5242880 npoint 214 integ     8 sigma    0.544 bsw 0
Spectrum      7 integration periods
 158.453  157.305  158.102  158.410  157.179  158.670  157.641  157.338  156.978  157.720  157.224  158.705  157.742  157.516  158.008  157.896  158.623  157.261  158.420  157.930  158.653  157.879  158.041  158.615  158.636  158.438  157.793  156.722  158.365  156.716  157.533  157.922  156.956  157.075  157.624  156.381  156.815  157.625  156.935  157.452  157.686  157.863  157.230  158.195  156.641  158.190  158.455  157.229  158.033  157.913  158.274  158.226  157.657  157.809  158.740  158.126  157.463  156.413  157.652  155.960  158.359  158.478  158.110  161.182  157.730  157.607  157.701  159.378  158.637  159.048  156.682  160.706  157.343  157.339  157.211  158.297  158.507  157.616  157.918  158.925  157.723  158.859  159.389  157.905  158.288  158.921  159.527  158.643  160.568  159.141  158.557  158.998  160.193  158.808  159.170  159.688  159.293  158.926  158.442  159.678  158.099  158.695  158.187  158.866  159.672  159.131  159.174  159.381  158.639  159.912  160.856  158.350  159.356  161.781  162.730  164.086  165.970  170.564  176.197  186.730  196.256  206.365  211.157  212.670  212.968  212.641  211.096  210.489  208.004  208.796  205.616  205.795  200.806  196.780  193.696  189.701  186.060  183.543  179.947  178.207  177.191  177.820  179.423  182.646  184.092  187.565  190.460  188.816  188.402  188.491  187.281  186.791  184.220  181.370  180.326  179.937  177.918  179.628  181.634  182.763  186.264  187.748  188.929  191.054  190.087  189.540  186.534  183.707  181.941  179.479  178.064  177.153  175.996  173.341  171.847  169.626  167.929  165.811  166.697  166.659  165.501  164.719  165.129  164.195  162.374  161.925  161.552  162.196  162.208  161.624  161.822  161.674  162.292  160.766  161.583  161.041  161.689  161.473  161.504  161.139  161.475  161.686  161.619  160.668  161.329  161.768  161.503  162.371  162.617  161.477  162.144  162.862  162.034  161.120 
DATE 2017:094:10:50:34 obsn 130 az  54 el 45 freq_MHz  1420.4000 Tsys 145.521 Tant 22.416 vlsr  -21.59 glat -0.022 glon 90.118 azoff 0.00 eloff 0.00 source G90.0 
Fstart 1419.397 fstop 1421.403 spacing 0.009375 bw    2.400 fbw    2.000 MHz nfreq 256 nsam 5242880 npoint 214 integ    19 sigma    0.349 bsw 0
Spectrum     17 integration periods
 157.775  157.936  158.270  158.206  157.545  158.003  157.681  157.433  157.305  157.583  157.498  157.758  157.670  156.954  157.437  157.346  158.181  157.362  157.683  157.396  158.219  157.714  158.501  158.606  158.084  158.138  157.735  157.293  158.432  157.335  157.388  157.328  157.928  157.383  157.474  157.400  157.768  157.686  157.092  157.550  157.002  157.483  157.326  157.974  157.286  157.966  157.625  157.367  157.849  157.362  157.817  157.596  157.117  157.721  157.433  157.572  157.067  156.958  157.877  157.240  158.396  158.332  157.869  160.727  157.848  158.125  157.891  159.461  158.434  160.286  157.208  159.915  158.246  157.696  157.853  158.132  158.323  157.848  158.183  159.044  158.028  158.274  158.993  158.488  158.419  158.592  159.176  158.677  159.452  159.155  159.086  159.197  159.245  158.618  158.571  158.945  159.571  158.667  158.826  158.798  158.347  158.914  158.572  159.307  159.065  159.424  158.804  158.857  159.090  159.781  159.810  158.704  159.690  161.116  162.419  163.693  166.230  170.676  176.405  186.135  196.453  206.165  211.750  213.008  212.964  211.908  209.204  209.839  208.368  207.531  206.233  204.618  200.590  197.552  193.683  189.889  185.804  183.963  179.603  178.322  177.191  178.236  179.667  181.842  183.906  187.444  190.365  189.743  188.882  188.060  187.261  185.746  184.428  182.159  180.347  180.351  178.375  179.532  181.007  182.625  185.602  188.146  189.095  190.658  189.924  189.023  186.240  183.328  181.600  179.703  177.692  176.937  175.811  173.482  171.448  169.271  167.819  166.654  166.215  166.692  164.868  164.198  164.254  163.869  162.549  161.816  161.569  162.212  161.306  161.621  161.876  161.608  161.087  161.201  161.741  160.917  161.090  161.415  161.032  160.871  161.083  161.185  161.769  160.865  161.350  161.807  161.581  162.555  162.992  162.028  162.260  162.929  162.647  161.554 
* entered azoff 0.000000 eloff 0.000000
DATE 2017:094:10:50:55 obsn 131 az  51 el 43 freq_MHz  1420.4000 Tsys 145.521 Tant 22.140 vlsr  -19.86 glat -0.013 glon 92.618 azoff 0.00 eloff 0.00 source G92.5 
Fstart 1419.397 fstop 1421.403 spacing 0.009375 bw    2.400 fbw    2.000 MHz nfreq 256 nsam 5242880 npoint 214 integ    10 sigma    0.479 bsw 0
Spectrum      9 integration periods
 157.666  159.676  158.611  157.987  157.085  156.713  157.658  157.413  156.995  157.898  157.457  157.653  157.267  156.776  157.379  157.584  158.037  158.103  159.368  157.908  158.272  158.839  158.060  157.743  159.225  158.697  158.113  159.037  157.317  158.145  157.945  158.848  157.759  157.230  157.652  158.177  157.942  157.809  158.268  158.321  157.982  157.318  157.708  157.235  157.834  158.278  157.887  158.765  158.275  158.548  158.681  157.263  158.095  157.747  158.074  158.584  158.648  158.607  157.952  158.445  158.290  158.728  158.548  159.550  158.535  157.270  157.893  158.616  157.771  161.331  157.054  162.727  158.601  158.892  159.450  158.235  158.918  158.550  158.990  158.378  159.280  158.776  158.853  159.333  159.015  159.101  158.623  158.461  158.908  159.948  159.625  158.765  158.962  159.300  159.242  158.733  159.526  159.848  158.361  158.590  159.423  158.826  158.856  158.299  158.295  159.531  158.976  159.327  159.025  159.087  159.258  159.468  159.407  160.042  160.946  162.565  165.745  170.032  177.319  187.457  200.183  208.934  212.393  212.683  209.765  205.626  205.184  203.510  201.667  199.598  198.934  194.823  192.280  190.081  189.603  188.585  185.391  184.237  181.839  180.152  180.203  181.010  182.474  183.340  183.706  183.893  186.170  188.135  187.675  185.824  184.625  184.210  183.812  183.335  183.042  183.168  181.598  181.441  182.756  183.762  183.932  184.922  185.619  186.333  185.170  183.124  183.589  179.520  179.460  178.581  176.894  177.609  175.994  173.032  171.748  169.503  169.004  165.898  165.867  163.977  164.343  162.964  162.188  162.040  161.789  160.643  161.090  160.355  160.326  160.743  159.589  161.147  159.591  159.399  159.639  158.559  159.407  159.702  159.410  160.036  160.229  160.403  159.524  161.043  159.939  160.788  161.124  160.800  160.639  160.981  160.459  161.165  159.293  160.620 
DATE 2017:094:10:51:17 obsn 132 az  49 el 42 freq_MHz  1420.4000 Tsys 145.521 Tant 22.774 vlsr  -18.10 glat -0.004 glon 95.118 azoff 0.00 eloff 0.00 source G95.0 
Fstart 1419.397 fstop 1421.403 spacing 0.009375 bw    2.400 fbw    2.000 MHz nfreq 256 nsam 5242880 npoint 214 integ     1 sigma    1.438 bsw 0
Spectrum      1 integration periods
 158.744  157.392  156.828  160.604  157.858  158.529  159.595  158.569  161.828  156.659  158.493  160.715  157.675  159.144  157.194  158.068  158.122  159.447  159.803  159.010  159.492  160.015  160.733  158.782  161.759  162.055  158.194  162.332  161.794  160.804  157.529  156.769  156.090  154.874  157.853  156.706  158.832  160.076  158.674  156.250  156.975  159.946  158.538  156.947  157.851  157.845  157.870  157.541  157.520  157.461  159.110  157.354  159.171  159.297  157.971  160.083  158.882  162.810  158.311  157.574  159.557  160.237  158.756  159.924  158.933  158.650  159.141  161.277  157.982  166.891  174.669  166.473  158.666  160.917  158.664  158.252  156.303  160.088  161.570  157.693  158.226  157.646  160.525  160.899  157.981  157.560  160.919  158.861  159.822  162.545  159.659  160.312  158.989  159.681  157.917  160.079  160.968  158.325  158.790  160.635  157.903  158.299  160.362  160.413  160.873  160.350  158.484  160.555  157.613  157.338  159.147  160.851  161.399  161.089  160.680  164.779  165.744  171.296  178.748  187.151  200.872  213.199  213.243  213.316  214.648  206.671  207.509  205.773  205.009  200.240  197.457  195.672  190.491  187.849  187.479  182.691  186.679  185.382  180.609  183.312  185.665  184.648  186.611  186.336  184.178  182.169  186.380  188.690  189.988  188.594  191.064  185.584  184.947  183.382  184.809  189.594  185.370  183.144  185.520  182.927  185.314  185.503  183.955  181.817  181.558  179.515  181.636  178.452  176.060  178.165  178.337  179.968  178.559  172.888  172.762  173.162  166.583  167.471  167.684  165.162  164.590  163.296  164.332  161.854  161.756  161.275  160.429  161.503  157.750  159.529  159.229  158.168  160.472  161.581  159.083  157.053  162.761  162.387  159.838  158.360  155.810  161.822  162.194  163.841  158.415  159.998  160.207  160.122  159.328  160.630  163.029  160.652  160.372  160.174 
* entered azoff 0.000000 eloff 0.000000
DATE 2017:094:10:51:30 obsn 133 az  49 el 42 freq_MHz  1420.4000 Tsys 145.521 Tant 22.686 vlsr  -18.10 glat -0.004 glon 95.118 azoff 0.00 eloff 0.00 source G95.0 
Fstart 1419.397 fstop 1421.403 spacing 0.009375 bw    2.400 fbw    2.000 MHz nfreq 256 nsam 5242880 npoint 214 integ    12 sigma    0.434 bsw 0
Spectrum     11 integration periods
 159.703  160.063  159.672  159.411  159.763  158.815  158.457  158.392  159.189  159.117  159.043  158.584  158.664  158.809  159.203  158.717  158.199  159.242  160.423  158.955  159.236  159.059  159.054  159.822  160.295  160.337  158.674  159.326  160.166  159.594  158.932  159.633  158.519  158.672  158.728  158.627  158.853  159.128  158.339  158.704  157.838  158.843  159.369  158.483  159.015  158.852  159.145  159.059  159.291  159.976  159.835  159.106  158.839  158.491  159.208  159.299  159.649  160.227  159.127  159.736  159.939  159.358  158.906  159.677  159.066  159.346  158.856  159.509  159.973  166.832  159.137  167.083  159.945  159.888  159.532  158.219  159.457  158.893  159.403  159.748  159.743  159.561  159.663  159.857  159.024  158.261  159.835  159.714  160.290  161.753  160.024  159.782  160.418  159.667  159.722  159.592  159.563  160.093  160.038  159.696  160.375  159.236  159.103  159.384  158.960  158.897  158.292  158.679  159.546  159.651  160.489  160.022  160.506  160.870  161.483  163.796  165.775  171.913  179.981  189.358  202.372  211.337  215.175  214.654  212.913  206.516  205.484  205.575  202.780  201.438  198.131  195.621  189.693  188.283  185.997  183.864  182.893  181.446  181.883  182.224  182.712  184.437  186.075  187.230  187.089  186.462  187.350  188.821  188.751  188.734  188.319  185.337  184.409  184.479  184.220  184.905  184.651  184.705  184.749  184.277  184.592  183.952  183.645  183.353  181.981  181.037  180.344  179.013  178.415  178.052  177.959  176.748  176.935  174.980  173.086  170.111  168.569  167.869  164.919  164.332  163.916  163.649  163.407  162.508  161.914  161.496  160.264  159.684  159.555  160.117  160.443  160.089  159.448  159.608  159.738  159.862  159.455  160.253  159.970  160.161  158.940  160.543  160.129  160.393  160.080  161.850  161.942  160.307  159.680  160.846  160.088  160.440  159.771  160.095 
* entered azoff 0.000000 eloff 0.000000
DATE 2017:094:10:51:51 obsn 134 az  46 el 40 freq_MHz  1420.4000 Tsys 145.521 Tant 21.139 vlsr  -16.31 glat  0.005 glon 97.618 azoff 0.00 eloff 0.00 source G97.5 
Fstart 1419.397 fstop 1421.403 spacing 0.009375 bw    2.400 fbw    2.000 MHz nfreq 256 nsam 5242880 npoint 214 integ     3 sigma    0.830 bsw 0
Spectrum      3 integration periods
 158.660  158.279  160.154  159.570  160.354  158.271  159.174  159.462  158.685  158.990  158.622  159.140  158.723  158.462  157.793  158.009  157.061  160.440  158.335  158.610  158.092  159.200  159.937  158.150  159.599  158.003  158.404  158.372  158.549  158.901  158.318  158.200  159.312  157.281  158.719  157.783  158.056  157.974  158.513  157.188  158.699  157.283  157.987  159.941  158.713  157.759  157.734  158.826  158.244  158.588  159.143  159.268  159.304  157.880  158.717  158.949  158.260  158.593  158.422  158.593  157.508  159.267  158.862  159.333  158.987  157.115  157.524  157.175  157.244  162.404  159.229  164.266  157.061  157.973  157.327  158.143  156.821  156.645  157.891  159.093  158.111  158.906  159.316  158.928  158.935  156.917  157.557  157.754  158.878  159.955  160.247  158.911  160.125  157.804  159.467  159.194  160.266  158.337  158.937  158.222  156.494  155.835  157.622  158.270  156.919  158.650  157.124  157.435  156.560  156.744  157.682  158.352  155.553  159.022  161.972  162.612  164.487  171.933  182.938  191.266  202.822  208.130  207.520  210.504  209.917  204.883  203.996  200.393  199.100  196.186  195.827  190.452  186.770  182.948  180.650  180.079  180.825  182.041  184.717  184.178  186.158  187.458  189.923  190.517  189.498  188.960  188.283  189.109  189.744  188.989  186.748  187.325  185.754  185.283  187.575  187.619  188.096  186.795  183.624  182.654  181.294  177.993  176.026  174.472  174.345  174.141  173.120  170.605  171.945  175.114  173.505  172.567  171.604  170.428  168.232  166.515  163.620  161.884  162.542  160.471  161.125  160.950  162.298  159.183  159.993  157.886  160.071  158.411  159.368  158.547  158.347  156.588  157.486  158.385  158.769  157.428  156.357  155.493  157.515  159.140  157.602  157.450  157.790  157.764  158.275  160.815  157.412  158.628  159.015  157.268  158.657  158.967  157.909  159.617 
DATE 2017:094:10:52:04 obsn 135 az  46 el 40 freq_MHz  1420.4000 Tsys 145.521 Tant 21.344 vlsr  -16.31 glat  0.005 glon 97.618 azoff 0.00 eloff 0.00 source G97.5 
Fstart 1419.397 fstop 1421.403 spacing 0.009375 bw    2.400 fbw    2.000 MHz nfreq 256 nsam 5242880 npoint 214 integ    14 sigma    0.399 bsw 0
Spectrum     13 integration periods
 159.118  159.205  159.511  159.242  159.709  158.919  158.357  159.111  158.832  158.328  158.101  158.989  158.132  158.676  158.371  158.860  158.515  158.677  158.912  158.794  158.567  159.713  158.846  158.754  158.418  159.045  158.521  158.703  159.040  158.837  158.752  158.036  158.657  158.614  158.290  158.172  157.711  158.587  157.911  157.968  157.759  157.824  158.073  158.405  157.458  157.612  158.581  158.647  157.807  157.751  158.936  158.808  158.332  158.190  158.880  158.619  158.469  158.862  158.608  158.862  158.624  158.500  158.345  159.198  158.652  157.804  158.246  158.204  158.070  163.206  157.381  165.492  157.827  158.123  157.804  158.317  158.074  158.039  157.621  158.878  157.964  158.357  158.722  158.120  158.481  157.903  158.008  158.553  158.271  159.572  158.307  158.545  158.816  158.175  159.168  158.112  159.144  157.632  158.403  157.617  157.077  157.141  157.813  158.878  157.478  158.358  158.366  157.492  157.482  157.774  157.621  158.113  157.764  159.625  160.695  162.161  164.706  171.374  182.104  192.670  202.937  207.019  208.432  209.501  207.492  205.641  203.310  200.815  197.916  196.416  194.265  191.411  187.958  184.038  180.959  180.116  179.869  182.282  183.301  185.565  186.368  188.219  191.016  191.328  189.841  189.763  187.740  187.782  188.568  188.011  186.947  186.784  187.131  186.896  187.304  188.982  188.369  186.452  184.071  182.581  180.575  177.598  176.055  176.056  173.547  172.979  172.901  172.502  173.234  174.219  172.853  172.842  171.713  169.368  168.650  165.666  164.601  163.426  163.172  161.651  161.251  160.376  160.877  160.172  158.979  158.633  159.038  158.626  158.291  158.186  157.697  157.829  158.219  157.556  158.440  157.887  157.921  156.627  157.594  158.184  157.959  157.743  157.531  158.743  157.926  158.704  158.430  158.900  158.510  158.113  158.372  158.789  158.107  158.284 
* entered azoff 0.000000 eloff 0.000000
DATE 2017:094:10:52:25 obsn 136 az  44 el 38 freq_MHz  1420.4000 Tsys 145.521 Tant 20.065 vlsr  -14.48 glat  0.014 glon 100.118 azoff 0.00 eloff 0.00 source G100.0 
Fstart 1419.397 fstop 1421.403 spacing 0.009375 bw    2.400 fbw    2.000 MHz nfreq 256 nsam 5242880 npoint 214 integ     5 sigma    0.643 bsw 0
Spectrum      5 integration periods
 158.833  160.208  158.963  159.719  159.140  158.943  158.763  158.181  157.911  157.817  157.943  157.962  158.218  157.500  157.497  158.025  158.618  159.187  158.470  157.958  158.819  158.757  159.144  158.498  159.196  159.278  158.855  158.303  158.303  157.584  158.048  158.786  157.391  157.330  157.850  156.802  157.222  158.075  158.600  157.185  157.770  157.195  156.463  158.332  157.485  156.413  158.096  157.559  157.747  158.335  158.925  157.154  159.522  158.024  157.777  157.852  158.553  157.849  157.876  157.932  156.962  157.444  158.864  160.143  157.482  157.194  157.491  157.504  157.888  160.331  159.054  158.755  158.855  156.908  158.151  157.480  157.456  156.413  157.580  156.848  156.863  157.916  158.264  157.967  157.693  157.365  157.429  157.597  157.696  159.721  156.704  157.613  158.594  157.808  158.083  159.124  158.882  158.466  156.785  157.799  157.577  158.103  156.810  157.554  157.055  156.935  157.339  156.448  156.978  156.904  157.508  158.644  158.439  159.094  159.772  162.543  166.834  174.677  184.021  195.290  203.082  202.277  202.453  202.305  202.326  198.703  196.662  192.188  192.348  188.618  188.436  186.494  185.806  183.652  180.226  180.705  183.214  183.202  185.631  185.785  186.749  187.339  186.563  185.540  184.980  185.642  185.909  186.811  187.096  188.084  188.354  187.973  185.905  187.094  185.740  186.231  183.403  181.214  179.089  175.529  171.896  170.811  170.290  169.334  168.371  169.187  169.356  170.279  169.581  170.205  168.976  168.714  166.642  166.595  163.274  163.755  162.647  160.309  160.853  161.239  158.823  158.736  157.851  157.764  157.853  157.754  157.214  156.225  157.179  158.740  157.225  156.885  156.591  157.515  157.314  156.189  156.620  157.392  157.545  157.886  156.948  156.848  157.559  157.024  156.965  156.264  157.027  157.136  156.402  158.454  157.293  157.966  158.833  157.125 
DATE 2017:094:10:52:38 obsn 137 az  44 el 38 freq_MHz  1420.4000 Tsys 145.521 Tant 19.943 vlsr  -14.48 glat  0.014 glon 100.118 azoff 0.00 eloff 0.00 source G100.0 
Fstart 1419.397 fstop 1421.403 spacing 0.009375 bw    2.400 fbw    2.000 MHz nfreq 256 nsam 5242880 npoint 214 integ    16 sigma    0.371 bsw 0
Spectrum     15 integration periods
 158.718  159.648  159.262  159.998  159.441  158.938  159.004  158.496  158.246  158.299  158.253  158.567  157.827  158.113  157.943  158.465  158.427  158.244  157.901  158.197  158.886  158.248  158.579  159.075  159.550  158.278  158.296  158.551  158.440  157.191  157.857  158.817  157.787  157.710  157.851  157.313  157.766  157.550  157.579  157.807  157.723  157.644  157.608  157.926  157.272  157.498  157.636  157.789  158.367  158.257  158.087  157.589  158.152  157.586  158.279  157.967  157.712  157.816  158.093  157.988  157.560  157.766  157.783  158.951  157.749  156.900  157.606  158.032  157.438  160.752  159.554  159.575  158.979  157.597  158.127  156.851  157.580  156.585  158.080  157.524  157.450  157.629  158.529  158.089  157.373  158.230  157.212  157.883  157.900  159.902  157.421  157.876  157.483  157.336  157.786  158.133  158.705  157.500  157.522  157.716  157.211  157.467  156.954  157.471  157.281  157.218  157.405  157.404  156.512  157.531  157.338  158.107  158.335  159.252  160.448  162.922  166.712  173.958  183.932  195.511  202.236  202.465  202.077  202.084  201.636  198.841  196.740  192.461  191.740  189.567  188.637  187.706  185.189  182.605  180.790  180.449  181.964  183.977  185.440  186.378  187.631  187.801  187.642  187.194  185.319  185.483  185.693  186.384  185.590  188.028  188.593  187.989  186.487  186.709  185.599  186.146  183.048  180.916  177.544  175.428  172.020  171.627  169.743  168.893  168.187  168.949  169.284  169.162  169.404  169.401  169.016  167.761  166.993  165.705  163.961  163.159  162.824  161.388  160.667  161.001  159.785  159.210  158.491  158.258  158.004  157.793  157.263  156.994  158.029  158.110  157.740  157.746  157.018  157.336  156.395  156.985  157.283  157.335  157.422  157.174  156.718  157.178  157.298  157.331  156.870  157.383  157.577  157.114  157.356  157.964  157.069  157.887  158.008  157.432 
