DATE 2017:046:23:55:01 obsn   0 az 294 el 61 freq_MHz  1420.4000 Tsys 138.000 Tant 61.363 vlsr   18.27 glat -21.254 glon 121.937 source Andr 
Fstart 1419.397 fstop 1421.403 spacing 0.009375 bw    2.400 fbw    2.000 MHz nfreq 256 nsam 5242880 npoint 214 integ    78 sigma    0.162 bsw 0
Spectrum     71 integration periods
 196.921  196.994  197.587  197.651  198.157  197.910  200.391  198.809  198.659  197.946  198.122  197.663  197.498  197.906  197.081  196.771  196.868  195.980  195.840  196.255  196.480  196.813  196.436  196.859  197.101  196.813  197.146  197.131  197.713  197.601  197.649  197.906  198.221  198.390  198.252  198.480  198.191  198.377  198.606  198.412  198.616  199.020  198.386  198.437  198.294  198.317  198.219  197.583  197.817  198.254  198.266  197.892  197.706  197.602  198.182  197.574  197.419  197.496  197.939  197.643  197.750  197.424  197.684  198.710  197.491  197.485  197.878  198.439  201.754  201.312  197.619  199.045  198.745  198.019  197.720  198.083  197.552  197.699  197.585  198.095  197.967  197.909  198.461  198.847  198.670  199.150  199.230  199.492  199.769  200.175  200.018  199.811  199.732  199.878  200.092  200.681  201.647  202.217  203.209  205.344  207.138  210.162  211.377  211.580  210.833  208.387  206.010  204.668  203.217  203.620  203.887  203.627  203.208  204.248  203.790  203.634  203.810  203.564  203.369  202.833  202.971  202.266  202.536  202.430  202.744  202.422  202.857  202.409  202.872  203.147  203.285  202.896  202.670  202.971  202.524  202.509  202.610  202.627  201.825  201.779  201.885  201.727  201.723  201.542  201.306  201.025  202.135  201.943  202.078  201.184  202.008  201.280  201.988  201.562  201.714  201.862  201.915  201.258  201.491  201.682  201.870  201.336  201.027  201.715  201.333  201.254  201.053  200.981  201.118  200.999  201.575  200.766  200.766  201.283  201.620  201.428  201.537  201.576  201.248  201.189  201.543  202.056  202.005  202.200  202.142  202.101  202.674  202.401  202.407  202.244  203.069  201.991  201.809  202.257  202.018  202.131  201.774  201.837  201.487  201.350  201.284  200.564  200.811  201.193  200.871  202.103  202.178  201.101  201.685  201.940  202.023  202.535  209.678  201.807 
DATE 2017:046:23:55:14 obsn   1 az 294 el 61 freq_MHz  1420.4000 Tsys 138.000 Tant 57.554 vlsr   18.27 glat -21.254 glon 121.937 source Andr 
Fstart 1419.397 fstop 1421.403 spacing 0.009375 bw    2.400 fbw    2.000 MHz nfreq 256 nsam 5242880 npoint 214 integ    88 sigma    0.152 bsw 0
Spectrum     81 integration periods
 196.169  196.344  196.893  196.964  197.466  197.286  199.588  198.169  197.919  197.410  197.555  196.941  196.842  197.192  196.514  195.993  196.231  195.367  195.135  195.572  195.799  196.225  195.824  196.141  196.423  196.175  196.508  196.575  196.959  197.005  197.053  197.315  197.720  197.847  197.720  197.856  197.580  197.851  197.969  197.825  198.007  198.303  197.842  197.805  197.678  197.665  197.652  197.098  197.324  197.748  197.752  197.362  197.262  196.977  197.529  197.107  196.816  196.898  197.275  197.159  197.098  196.849  197.105  198.172  196.915  196.984  197.188  197.855  201.374  200.876  197.430  198.557  198.044  197.393  197.079  197.568  196.993  197.040  196.945  197.632  197.433  197.282  197.823  198.236  198.159  198.480  198.710  198.861  199.129  199.555  199.418  199.182  199.239  199.346  199.351  200.031  200.960  201.661  202.600  204.638  206.643  209.374  210.757  210.920  210.228  207.777  205.638  204.106  202.681  202.976  203.197  202.979  202.502  203.475  203.222  203.199  203.182  202.958  202.773  202.248  202.280  201.714  201.954  201.774  202.087  201.751  202.310  201.826  202.316  202.484  202.746  202.297  202.077  202.515  201.909  201.939  202.021  202.013  201.023  201.190  201.249  201.206  201.065  200.955  200.658  200.381  201.518  201.265  201.478  200.654  201.334  200.656  201.406  200.942  201.051  201.458  201.240  200.740  200.895  200.992  201.245  200.855  200.314  201.053  200.800  200.662  200.436  200.346  200.634  200.455  201.042  200.283  200.081  200.683  201.063  200.852  200.985  200.973  200.622  200.539  200.937  201.373  201.316  201.521  201.564  201.488  201.954  201.817  201.801  201.652  202.363  201.363  201.140  201.615  201.341  201.497  201.172  201.102  200.628  200.782  200.720  200.077  200.127  200.565  200.149  201.406  201.369  200.463  200.913  201.108  201.289  201.730  208.113  201.031 
DATE 2017:046:23:55:27 obsn   2 az 294 el 61 freq_MHz  1420.4000 Tsys 138.000 Tant 75.078 vlsr   18.27 glat -21.254 glon 121.937 source Andr 
Fstart 1419.397 fstop 1421.403 spacing 0.009375 bw    2.400 fbw    2.000 MHz nfreq 256 nsam 5242880 npoint 214 integ    99 sigma    0.143 bsw 0
Spectrum     91 integration periods
 195.584  195.810  196.390  196.464  196.980  196.793  199.107  197.758  197.454  196.993  196.953  196.629  196.330  196.737  196.093  195.681  195.740  195.038  194.638  195.148  195.361  195.691  195.336  195.632  195.897  195.731  196.107  196.329  196.486  196.589  196.656  197.008  197.291  197.485  197.197  197.422  197.102  197.336  197.496  197.354  197.607  197.799  197.375  197.383  197.273  197.231  197.163  196.823  197.009  197.469  197.306  196.932  196.982  196.685  197.114  196.696  196.398  196.507  196.876  196.764  196.840  196.470  196.627  197.640  196.501  196.589  196.881  197.423  201.026  200.509  197.335  198.188  197.577  197.142  196.751  197.140  196.638  196.737  196.609  197.138  197.038  196.874  197.464  197.803  197.726  198.036  198.172  198.446  198.692  199.128  199.014  198.721  198.820  198.985  199.028  199.672  200.560  201.233  202.219  204.157  206.191  209.004  210.374  210.540  209.783  207.501  205.320  203.825  202.422  202.697  202.730  202.613  202.159  203.150  202.853  202.835  202.878  202.566  202.416  201.875  201.858  201.401  201.493  201.463  201.693  201.370  201.851  201.499  201.834  202.088  202.279  201.864  201.716  202.155  201.477  201.576  201.592  201.571  200.668  200.834  200.900  200.734  200.659  200.614  200.221  199.883  201.074  200.746  201.033  200.339  200.907  200.224  200.996  200.545  200.590  201.200  200.809  200.344  200.558  200.518  200.747  200.465  199.950  200.577  200.394  200.318  199.961  199.951  200.240  200.119  200.577  200.059  199.689  200.391  200.520  200.381  200.623  200.627  200.235  200.136  200.582  200.863  200.921  201.102  201.113  201.031  201.530  201.404  201.386  201.202  201.822  200.953  200.736  201.097  200.811  201.123  200.745  200.677  200.230  200.357  200.310  199.752  199.696  200.032  199.823  200.854  200.902  199.959  200.395  200.600  200.782  201.259  207.051  200.621 
DATE 2017:046:23:55:40 obsn   3 az 294 el 61 freq_MHz  1420.4000 Tsys 138.000 Tant 62.750 vlsr   18.27 glat -21.254 glon 121.937 source Andr 
Fstart 1419.397 fstop 1421.403 spacing 0.009375 bw    2.400 fbw    2.000 MHz nfreq 256 nsam 5242880 npoint 214 integ   110 sigma    0.136 bsw 0
Spectrum    101 integration periods
 196.040  196.485  196.847  196.975  197.556  197.308  199.613  198.284  198.000  197.641  197.512  197.258  196.946  197.239  196.641  196.360  196.329  195.653  195.199  195.718  195.939  196.318  195.956  196.246  196.566  196.252  196.797  196.973  197.148  197.183  197.253  197.695  197.824  198.082  197.884  197.955  197.737  198.037  198.137  197.952  198.334  198.434  198.079  197.903  197.902  197.933  197.770  197.574  197.680  198.130  197.998  197.600  197.574  197.411  197.811  197.497  197.079  197.054  197.492  197.439  197.582  197.054  197.301  198.300  197.213  197.209  197.539  198.020  201.836  201.128  198.165  198.858  198.244  197.803  197.421  197.803  197.304  197.424  197.325  197.789  197.641  197.511  198.038  198.451  198.468  198.763  199.110  199.047  199.473  199.746  199.643  199.486  199.517  199.728  199.829  200.270  201.261  201.747  202.942  204.884  207.016  209.742  210.969  211.262  210.478  208.288  206.231  204.565  203.116  203.347  203.569  203.297  202.864  203.918  203.420  203.338  203.554  203.144  203.121  202.628  202.621  202.155  202.108  202.260  202.442  202.125  202.526  202.209  202.532  202.790  202.941  202.494  202.359  202.862  202.109  202.162  202.205  202.336  201.321  201.625  201.569  201.440  201.272  201.349  201.015  200.605  201.668  201.417  201.590  200.924  201.457  200.838  201.587  201.199  201.268  201.744  201.441  200.957  201.066  201.214  201.384  201.084  200.651  201.167  200.910  200.924  200.608  200.538  200.860  200.729  201.200  200.501  200.252  200.993  201.031  200.920  201.261  201.211  200.717  200.753  201.187  201.363  201.356  201.763  201.633  201.527  202.017  201.881  201.871  201.777  202.378  201.321  201.365  201.642  201.337  201.562  201.192  201.314  200.799  200.936  200.767  200.185  200.151  200.540  200.459  201.217  201.332  200.428  200.767  201.140  201.232  201.684  207.031  201.051 
DATE 2017:046:23:55:53 obsn   4 az 294 el 61 freq_MHz  1420.4000 Tsys 138.000 Tant 63.110 vlsr   18.27 glat -21.254 glon 121.937 source Andr 
Fstart 1419.397 fstop 1421.403 spacing 0.009375 bw    2.400 fbw    2.000 MHz nfreq 256 nsam 5242880 npoint 214 integ   121 sigma    0.129 bsw 0
Spectrum    111 integration periods
 196.223  196.783  196.972  197.162  197.729  197.596  199.873  198.492  198.243  197.907  197.824  197.534  197.172  197.423  196.704  196.542  196.510  195.900  195.417  195.950  196.205  196.576  196.167  196.500  196.871  196.431  197.020  197.127  197.498  197.495  197.516  197.835  197.998  198.368  198.091  198.229  197.995  198.227  198.461  198.190  198.603  198.651  198.411  198.096  198.193  198.148  198.050  197.822  197.905  198.357  198.205  197.831  197.889  197.743  197.964  197.752  197.309  197.337  197.720  197.669  197.737  197.257  197.515  198.747  197.502  197.525  197.833  198.353  202.229  201.446  198.154  199.063  198.562  198.173  197.598  198.075  197.554  197.837  197.743  197.955  197.906  197.840  198.289  198.680  198.809  198.934  199.323  199.250  199.790  200.095  199.838  199.780  199.847  200.023  200.167  200.580  201.579  202.081  203.228  205.162  207.337  209.983  211.241  211.587  210.815  208.517  206.627  204.878  203.452  203.651  203.862  203.550  203.164  204.169  203.703  203.531  203.753  203.462  203.477  203.039  202.961  202.403  202.472  202.608  202.743  202.544  202.824  202.521  202.866  203.173  203.367  202.688  202.686  203.105  202.431  202.425  202.441  202.670  201.584  201.868  201.750  201.716  201.513  201.601  201.349  200.848  201.792  201.593  201.877  201.222  201.697  201.092  201.850  201.453  201.495  202.022  201.703  201.166  201.261  201.391  201.588  201.303  200.866  201.324  201.104  201.179  200.892  200.788  200.986  200.961  201.470  200.736  200.492  201.171  201.272  201.188  201.488  201.382  200.985  201.018  201.524  201.532  201.595  202.029  201.963  201.771  202.165  202.010  202.139  202.007  202.477  201.548  201.520  201.723  201.444  201.685  201.322  201.482  201.026  201.080  200.879  200.378  200.369  200.754  200.631  201.313  201.526  200.604  200.953  201.315  201.391  201.771  206.698  201.179 
DATE 2017:046:23:56:06 obsn   5 az 294 el 61 freq_MHz  1420.4000 Tsys 138.000 Tant 68.170 vlsr   18.27 glat -21.254 glon 121.937 source Andr 
Fstart 1419.397 fstop 1421.403 spacing 0.009375 bw    2.400 fbw    2.000 MHz nfreq 256 nsam 5242880 npoint 214 integ   132 sigma    0.124 bsw 0
Spectrum    121 integration periods
 196.734  197.150  197.363  197.546  198.151  198.138  200.261  198.941  198.630  198.372  198.358  198.083  197.600  197.775  197.171  197.098  196.913  196.384  195.959  196.460  196.738  197.080  196.711  196.886  197.221  196.959  197.458  197.540  197.942  197.961  197.951  198.332  198.386  198.787  198.595  198.780  198.602  198.820  198.964  198.715  199.061  199.126  198.953  198.647  198.640  198.625  198.581  198.276  198.426  198.840  198.667  198.367  198.341  198.278  198.501  198.158  197.798  197.830  198.236  198.211  198.157  197.740  198.058  199.286  198.154  198.059  198.374  198.836  202.932  202.005  198.846  199.603  199.111  198.566  198.179  198.691  198.070  198.300  198.253  198.466  198.377  198.463  198.722  199.120  199.380  199.493  199.820  199.790  200.301  200.614  200.483  200.296  200.451  200.538  200.693  201.139  202.192  202.636  203.766  205.738  207.848  210.457  211.726  212.190  211.353  209.063  207.084  205.403  204.088  204.184  204.452  204.030  203.726  204.728  204.179  204.060  204.373  203.967  203.961  203.525  203.546  202.986  202.901  203.179  203.327  203.124  203.303  203.093  203.432  203.713  203.859  203.289  203.178  203.661  202.996  202.894  203.078  203.063  202.214  202.380  202.249  202.252  201.994  202.149  201.834  201.484  202.289  202.096  202.313  201.726  202.048  201.622  202.397  202.046  202.014  202.499  202.151  201.692  201.752  201.910  202.085  201.804  201.297  201.706  201.604  201.651  201.380  201.173  201.406  201.384  201.896  201.132  200.928  201.552  201.671  201.673  201.920  201.923  201.467  201.437  201.997  202.051  202.095  202.401  202.357  202.096  202.525  202.511  202.520  202.484  202.898  201.914  201.817  202.127  201.907  202.169  201.688  201.987  201.429  201.352  201.253  200.811  200.755  201.112  201.006  201.639  201.891  201.032  201.366  201.642  201.791  202.161  206.641  201.551 
DATE 2017:046:23:56:19 obsn   6 az 294 el 61 freq_MHz  1420.4000 Tsys 138.000 Tant 56.305 vlsr   18.27 glat -21.254 glon 121.937 source Andr 
Fstart 1419.397 fstop 1421.403 spacing 0.009375 bw    2.400 fbw    2.000 MHz nfreq 256 nsam 5242880 npoint 214 integ   143 sigma    0.119 bsw 0
Spectrum    131 integration periods
 196.580  196.989  197.197  197.347  197.887  197.933  200.061  198.677  198.365  198.165  198.097  197.805  197.436  197.661  196.952  196.919  196.645  196.130  195.784  196.207  196.556  196.804  196.502  196.714  196.985  196.712  197.213  197.372  197.885  197.752  197.755  198.082  198.245  198.579  198.386  198.571  198.440  198.599  198.746  198.483  198.873  198.946  198.764  198.390  198.430  198.361  198.389  198.047  198.247  198.596  198.471  198.210  198.196  198.082  198.246  197.932  197.648  197.625  198.039  197.990  197.924  197.539  197.827  199.115  197.930  197.813  198.159  198.659  202.705  201.904  198.720  199.477  198.928  198.434  197.987  198.445  197.885  198.108  197.998  198.236  198.154  198.299  198.493  198.868  199.129  199.264  199.626  199.603  200.168  200.365  200.296  200.162  200.232  200.384  200.530  200.890  201.978  202.405  203.526  205.534  207.581  210.178  211.607  211.966  211.189  208.854  206.899  205.191  203.905  203.949  204.219  203.840  203.638  204.471  203.942  203.864  204.149  203.731  203.761  203.342  203.417  202.769  202.800  202.955  203.066  202.909  203.057  202.937  203.248  203.538  203.735  203.146  202.930  203.495  202.779  202.705  202.770  202.847  201.992  202.184  202.114  202.046  201.786  201.942  201.738  201.364  202.099  201.843  202.020  201.429  201.771  201.488  202.218  201.766  201.766  202.265  201.978  201.498  201.583  201.713  201.886  201.541  201.046  201.509  201.415  201.527  201.111  200.933  201.192  201.299  201.755  200.990  200.715  201.359  201.429  201.412  201.728  201.671  201.273  201.260  201.885  201.835  201.922  202.232  202.151  201.890  202.355  202.333  202.285  202.228  202.697  201.685  201.556  201.839  201.740  201.968  201.549  201.750  201.215  201.189  201.021  200.618  200.529  200.857  200.816  201.404  201.660  200.873  201.167  201.384  201.531  201.944  206.109  201.335 
DATE 2017:046:23:56:33 obsn   7 az 294 el 61 freq_MHz  1420.4000 Tsys 138.000 Tant 55.619 vlsr   18.27 glat -21.254 glon 121.937 source Andr 
Fstart 1419.397 fstop 1421.403 spacing 0.009375 bw    2.400 fbw    2.000 MHz nfreq 256 nsam 5242880 npoint 214 integ   154 sigma    0.115 bsw 0
Spectrum    141 integration periods
 196.046  196.426  196.641  196.917  197.442  197.447  199.581  198.113  197.810  197.634  197.651  197.255  196.931  197.179  196.430  196.409  196.194  195.585  195.265  195.740  196.017  196.331  195.956  196.227  196.503  196.271  196.767  196.833  197.351  197.289  197.317  197.584  197.746  198.034  197.865  198.065  197.896  198.101  198.256  198.007  198.318  198.439  198.217  197.886  197.979  197.866  197.912  197.620  197.773  198.093  197.953  197.741  197.718  197.654  197.726  197.452  197.203  197.088  197.535  197.444  197.390  197.050  197.385  198.654  197.465  197.365  197.665  198.224  202.276  201.403  198.256  198.956  198.404  197.975  197.535  198.008  197.455  197.592  197.604  197.765  197.609  197.770  198.058  198.361  198.607  198.785  199.198  199.084  199.609  199.835  199.810  199.642  199.683  199.966  200.019  200.464  201.436  201.896  202.983  205.036  207.234  209.757  211.159  211.415  210.684  208.323  206.359  204.722  203.363  203.402  203.671  203.309  203.188  203.962  203.490  203.370  203.607  203.244  203.314  202.813  202.921  202.294  202.194  202.525  202.538  202.389  202.505  202.475  202.641  203.040  203.224  202.614  202.432  202.963  202.207  202.258  202.241  202.357  201.588  201.693  201.664  201.545  201.300  201.401  201.240  200.872  201.587  201.363  201.438  200.913  201.306  201.008  201.709  201.274  201.324  201.657  201.509  201.093  201.078  201.203  201.362  201.085  200.515  201.034  200.884  201.011  200.616  200.413  200.755  200.904  201.251  200.497  200.267  200.876  200.969  200.935  201.285  201.199  200.834  200.859  201.486  201.322  201.386  201.747  201.671  201.422  201.859  201.704  201.766  201.736  202.270  201.261  201.124  201.313  201.270  201.446  201.043  201.322  200.718  200.748  200.583  200.138  199.998  200.374  200.278  200.962  201.181  200.473  200.651  200.942  201.113  201.445  205.325  200.852 
DATE 2017:046:23:56:46 obsn   8 az 294 el 61 freq_MHz  1420.4000 Tsys 138.000 Tant 57.285 vlsr   18.27 glat -21.254 glon 121.937 source Andr 
Fstart 1419.397 fstop 1421.403 spacing 0.009375 bw    2.400 fbw    2.000 MHz nfreq 256 nsam 5242880 npoint 214 integ   165 sigma    0.111 bsw 0
Spectrum    151 integration periods
 195.649  195.970  196.261  196.579  197.072  197.148  199.177  197.771  197.525  197.308  197.316  196.969  196.568  196.842  196.065  196.060  195.859  195.248  194.917  195.488  195.699  195.999  195.628  195.886  196.165  195.963  196.437  196.501  196.967  196.920  196.965  197.235  197.419  197.732  197.561  197.744  197.564  197.776  197.943  197.675  197.950  198.166  197.900  197.525  197.582  197.474  197.591  197.281  197.569  197.740  197.631  197.411  197.379  197.290  197.382  197.099  196.853  196.773  197.197  197.003  197.049  196.737  197.045  198.353  197.086  196.982  197.284  197.850  201.987  201.130  197.624  198.635  198.087  197.608  197.076  197.644  197.137  197.275  197.241  197.430  197.257  197.434  197.693  198.029  198.243  198.496  198.807  198.867  199.288  199.447  199.496  199.293  199.269  199.651  199.594  200.106  201.077  201.557  202.673  204.667  206.898  209.410  210.817  211.125  210.345  207.990  205.971  204.340  203.041  203.046  203.382  203.085  202.831  203.678  203.175  202.989  203.226  202.872  202.929  202.386  202.542  201.880  201.856  202.171  202.124  202.069  202.147  202.270  202.313  202.689  202.921  202.262  202.059  202.639  201.914  201.914  201.888  202.015  201.275  201.312  201.233  201.117  200.938  201.055  200.952  200.578  201.255  201.026  201.048  200.553  200.925  200.709  201.286  200.949  200.931  201.286  201.183  200.737  200.749  200.852  201.122  200.799  200.148  200.635  200.539  200.621  200.219  200.104  200.430  200.538  200.839  200.129  199.937  200.487  200.587  200.590  200.912  200.778  200.466  200.457  201.157  200.969  200.972  201.448  201.310  201.029  201.573  201.317  201.450  201.386  201.934  200.981  200.784  200.968  200.937  201.054  200.693  200.940  200.393  200.415  200.157  199.742  199.636  200.028  199.974  200.588  200.856  200.186  200.288  200.583  200.753  200.996  204.742  200.521 
DATE 2017:046:23:56:59 obsn   9 az 294 el 61 freq_MHz  1420.4000 Tsys 138.000 Tant 58.743 vlsr   18.27 glat -21.254 glon 121.937 source Andr 
Fstart 1419.397 fstop 1421.403 spacing 0.009375 bw    2.400 fbw    2.000 MHz nfreq 256 nsam 5242880 npoint 214 integ   176 sigma    0.107 bsw 0
Spectrum    161 integration periods
 195.271  195.635  195.917  196.205  196.682  196.812  198.793  197.412  197.207  196.947  196.975  196.608  196.222  196.450  195.744  195.655  195.544  194.911  194.577  195.169  195.340  195.647  195.317  195.553  195.865  195.578  196.112  196.162  196.605  196.647  196.628  196.888  197.074  197.358  197.233  197.377  197.292  197.444  197.550  197.322  197.571  197.773  197.470  197.150  197.268  197.137  197.276  196.944  197.216  197.415  197.318  197.033  196.997  196.981  197.084  196.779  196.547  196.461  196.869  196.613  196.695  196.369  196.737  198.008  196.817  196.646  196.992  197.478  201.630  200.870  197.582  198.331  197.726  197.280  196.774  197.298  196.799  196.909  196.912  197.089  196.882  197.092  197.346  197.731  197.862  198.140  198.529  198.573  198.944  199.127  199.151  198.935  198.952  199.276  199.264  199.753  200.694  201.252  202.297  204.292  206.523  209.070  210.495  210.865  210.001  207.635  205.710  204.003  202.710  202.717  202.994  202.743  202.477  203.354  202.852  202.557  202.866  202.502  202.591  202.064  202.235  201.575  201.527  201.867  201.795  201.681  201.838  201.923  201.947  202.309  202.548  201.942  201.783  202.259  201.560  201.616  201.528  201.632  200.921  200.975  200.861  200.747  200.515  200.693  200.590  200.228  200.928  200.776  200.663  200.280  200.582  200.321  200.888  200.579  200.605  201.090  200.859  200.335  200.393  200.548  200.811  200.475  199.902  200.361  200.171  200.322  199.874  199.790  200.060  200.256  200.508  199.824  199.650  200.116  200.240  200.278  200.514  200.429  200.149  200.148  200.818  200.605  200.625  201.104  200.913  200.682  201.240  201.025  201.034  201.006  201.591  200.604  200.513  200.657  200.602  200.649  200.377  200.576  200.054  200.096  199.820  199.407  199.217  199.680  199.646  200.317  200.506  199.825  199.979  200.192  200.431  200.682  204.228  200.195 
DATE 2017:046:23:57:12 obsn  10 az 294 el 61 freq_MHz  1420.4000 Tsys 138.000 Tant 57.025 vlsr   18.27 glat -21.254 glon 121.937 source Andr 
Fstart 1419.397 fstop 1421.403 spacing 0.009375 bw    2.400 fbw    2.000 MHz nfreq 256 nsam 5242880 npoint 214 integ   187 sigma    0.104 bsw 0
Spectrum    171 integration periods
 195.066  195.526  195.753  196.077  196.553  196.623  198.574  197.194  197.018  196.736  196.781  196.492  196.124  196.284  195.613  195.395  195.342  194.806  194.445  195.016  195.163  195.414  195.136  195.337  195.653  195.458  195.951  195.961  196.448  196.433  196.527  196.741  196.924  197.244  197.079  197.225  197.095  197.284  197.421  197.192  197.389  197.572  197.315  197.087  197.111  196.958  197.094  196.774  197.015  197.240  197.186  196.865  196.866  196.780  196.871  196.630  196.360  196.371  196.691  196.444  196.517  196.223  196.553  197.868  196.602  196.432  196.867  197.293  201.498  200.787  197.204  198.159  197.546  197.168  196.671  197.140  196.643  196.741  196.758  196.934  196.761  196.949  197.171  197.546  197.686  198.012  198.355  198.423  198.769  198.926  198.975  198.767  198.791  199.125  199.085  199.565  200.515  201.061  202.130  204.102  206.416  208.892  210.302  210.694  209.803  207.469  205.459  203.791  202.550  202.565  202.867  202.572  202.277  203.159  202.714  202.369  202.776  202.346  202.362  201.903  202.075  201.489  201.403  201.684  201.650  201.501  201.647  201.826  201.784  202.100  202.438  201.769  201.622  202.064  201.385  201.506  201.299  201.405  200.758  200.772  200.697  200.543  200.321  200.501  200.430  200.034  200.727  200.592  200.507  200.138  200.384  200.148  200.738  200.416  200.390  200.933  200.625  200.137  200.141  200.313  200.626  200.327  199.768  200.183  199.933  200.107  199.677  199.672  199.868  200.086  200.297  199.646  199.497  199.923  200.050  200.124  200.327  200.224  199.972  200.012  200.670  200.386  200.462  200.979  200.713  200.511  201.015  200.812  200.802  200.902  201.363  200.419  200.354  200.473  200.428  200.446  200.172  200.374  199.815  199.893  199.585  199.215  199.024  199.383  199.440  200.123  200.347  199.626  199.726  200.059  200.263  200.437  203.823  199.918 
DATE 2017:046:23:57:25 obsn  11 az 294 el 61 freq_MHz  1420.4000 Tsys 138.000 Tant 55.787 vlsr   18.27 glat -21.254 glon 121.937 source Andr 
Fstart 1419.397 fstop 1421.403 spacing 0.009375 bw    2.400 fbw    2.000 MHz nfreq 256 nsam 5242880 npoint 214 integ   198 sigma    0.101 bsw 0
Spectrum    181 integration periods
 194.790  195.233  195.483  195.777  196.275  196.367  198.268  196.869  196.757  196.483  196.474  196.208  195.833  195.956  195.286  195.146  195.026  194.524  194.184  194.675  194.809  195.102  194.851  194.998  195.413  195.145  195.634  195.632  196.092  196.166  196.258  196.456  196.612  196.977  196.797  196.908  196.799  197.002  197.122  196.931  197.072  197.276  197.031  196.875  196.837  196.672  196.732  196.513  196.813  196.943  196.922  196.594  196.581  196.520  196.649  196.327  196.111  196.115  196.366  196.173  196.237  195.896  196.231  197.618  196.300  196.177  196.634  196.994  201.247  200.548  196.820  197.858  197.253  196.776  196.382  196.885  196.409  196.405  196.414  196.630  196.511  196.626  196.859  197.285  197.368  197.703  198.060  198.151  198.508  198.618  198.715  198.542  198.489  198.878  198.847  199.313  200.236  200.722  201.823  203.809  206.182  208.630  210.062  210.377  209.563  207.181  205.206  203.481  202.252  202.239  202.534  202.261  202.016  202.876  202.434  202.076  202.467  202.048  202.041  201.588  201.790  201.237  201.105  201.378  201.397  201.224  201.391  201.528  201.480  201.807  202.110  201.479  201.336  201.761  201.109  201.221  201.010  201.101  200.456  200.449  200.409  200.169  199.972  200.202  200.135  199.751  200.401  200.322  200.246  199.880  200.145  199.914  200.482  200.139  200.080  200.637  200.349  199.827  199.775  200.007  200.277  199.984  199.486  199.891  199.662  199.785  199.384  199.387  199.545  199.803  200.011  199.353  199.198  199.651  199.722  199.839  200.039  199.928  199.736  199.690  200.438  200.094  200.188  200.731  200.451  200.276  200.665  200.511  200.533  200.553  201.002  200.189  200.066  200.161  200.153  200.179  199.857  200.091  199.544  199.531  199.309  198.922  198.728  199.053  199.086  199.753  199.984  199.314  199.424  199.720  199.927  200.105  203.328  199.632 
DATE 2017:046:23:57:38 obsn  12 az 294 el 61 freq_MHz  1420.4000 Tsys 138.000 Tant 58.626 vlsr   18.27 glat -21.254 glon 121.937 source Andr 
Fstart 1419.397 fstop 1421.403 spacing 0.009375 bw    2.400 fbw    2.000 MHz nfreq 256 nsam 5242880 npoint 214 integ   209 sigma    0.099 bsw 0
Spectrum    191 integration periods
 194.553  194.961  195.215  195.543  195.983  196.131  197.957  196.622  196.457  196.155  196.232  195.919  195.509  195.695  195.042  194.913  194.806  194.288  193.933  194.397  194.566  194.805  194.575  194.713  195.182  194.871  195.351  195.348  195.828  195.886  196.005  196.177  196.349  196.688  196.554  196.659  196.519  196.733  196.867  196.689  196.786  197.013  196.709  196.550  196.543  196.408  196.467  196.282  196.506  196.654  196.698  196.384  196.301  196.252  196.384  196.108  195.828  195.867  196.057  195.910  195.960  195.653  195.970  197.414  196.048  195.920  196.390  196.756  201.057  200.293  196.722  197.638  197.028  196.475  196.112  196.607  196.121  196.113  196.126  196.348  196.258  196.312  196.593  197.046  197.102  197.455  197.800  197.962  198.291  198.354  198.381  198.282  198.212  198.640  198.580  199.006  199.936  200.418  201.530  203.556  205.879  208.331  209.811  210.126  209.256  206.891  204.867  203.217  201.945  201.960  202.267  201.924  201.759  202.585  202.169  201.817  202.161  201.760  201.713  201.300  201.468  200.981  200.816  201.103  201.111  200.965  201.108  201.253  201.171  201.517  201.848  201.229  201.018  201.480  200.811  200.946  200.671  200.807  200.118  200.144  200.106  199.771  199.686  199.879  199.913  199.473  200.110  199.978  199.945  199.570  199.813  199.641  200.177  199.875  199.801  200.353  200.069  199.585  199.488  199.700  199.984  199.672  199.200  199.615  199.412  199.486  199.148  199.128  199.268  199.567  199.739  199.132  198.889  199.388  199.509  199.548  199.766  199.649  199.458  199.421  200.164  199.812  199.880  200.428  200.163  199.972  200.399  200.221  200.237  200.234  200.677  199.883  199.790  199.849  199.872  199.897  199.606  199.822  199.310  199.280  198.998  198.656  198.433  198.751  198.798  199.456  199.663  198.965  199.178  199.446  199.655  199.871  202.919  199.352 
DATE 2017:046:23:57:51 obsn  13 az 294 el 61 freq_MHz  1420.4000 Tsys 138.000 Tant 56.136 vlsr   18.27 glat -21.254 glon 121.937 source Andr 
Fstart 1419.397 fstop 1421.403 spacing 0.009375 bw    2.400 fbw    2.000 MHz nfreq 256 nsam 5242880 npoint 214 integ   220 sigma    0.096 bsw 0
Spectrum    201 integration periods
 194.393  194.783  195.090  195.412  195.856  195.964  197.808  196.476  196.310  196.032  196.127  195.796  195.401  195.542  194.941  194.771  194.653  194.147  193.864  194.242  194.389  194.681  194.366  194.614  195.043  194.719  195.202  195.202  195.662  195.788  195.866  196.034  196.224  196.556  196.449  196.477  196.359  196.656  196.659  196.549  196.645  196.852  196.587  196.417  196.426  196.306  196.350  196.143  196.303  196.503  196.639  196.262  196.172  196.075  196.318  196.023  195.696  195.718  195.930  195.786  195.796  195.540  195.820  197.298  195.888  195.801  196.245  196.619  200.930  200.118  196.719  197.560  196.946  196.317  196.022  196.436  195.947  195.984  196.010  196.190  196.156  196.177  196.504  196.909  196.957  197.346  197.666  197.840  198.109  198.235  198.187  198.086  198.057  198.430  198.386  198.846  199.743  200.301  201.376  203.396  205.775  208.216  209.700  209.976  209.031  206.745  204.695  203.079  201.800  201.829  202.116  201.832  201.675  202.467  202.023  201.697  202.021  201.620  201.592  201.183  201.334  200.825  200.637  200.922  201.012  200.772  200.939  201.114  200.991  201.312  201.633  201.040  200.866  201.286  200.689  200.763  200.488  200.640  199.923  199.930  199.926  199.622  199.571  199.767  199.738  199.326  199.985  199.817  199.781  199.430  199.658  199.471  200.003  199.709  199.626  200.258  199.887  199.405  199.324  199.543  199.825  199.498  199.073  199.465  199.239  199.287  199.010  198.959  199.084  199.388  199.522  198.979  198.747  199.227  199.347  199.378  199.593  199.478  199.310  199.282  200.001  199.607  199.720  200.274  200.007  199.824  200.147  200.059  200.096  200.123  200.497  199.681  199.669  199.714  199.735  199.766  199.438  199.659  199.160  199.149  198.795  198.491  198.298  198.631  198.665  199.294  199.536  198.791  199.047  199.286  199.469  199.713  202.659  199.212 
DATE 2017:046:23:58:04 obsn  14 az 294 el 61 freq_MHz  1420.4000 Tsys 138.000 Tant 56.000 vlsr   18.27 glat -21.254 glon 121.937 source Andr 
Fstart 1419.397 fstop 1421.403 spacing 0.009375 bw    2.400 fbw    2.000 MHz nfreq 256 nsam 5242880 npoint 214 integ   230 sigma    0.094 bsw 0
Spectrum    211 integration periods
 194.186  194.542  194.866  195.207  195.622  195.770  197.619  196.248  196.113  195.836  195.952  195.581  195.232  195.376  194.751  194.609  194.442  194.001  193.686  194.053  194.199  194.486  194.167  194.455  194.869  194.535  194.954  195.030  195.494  195.556  195.645  195.833  196.038  196.341  196.202  196.289  196.148  196.398  196.441  196.302  196.472  196.668  196.407  196.206  196.235  196.162  196.181  195.975  196.116  196.287  196.466  196.044  195.946  195.904  196.118  195.862  195.538  195.496  195.720  195.602  195.603  195.338  195.672  197.161  195.662  195.648  196.044  196.402  200.777  199.967  196.630  197.414  196.731  196.075  195.825  196.236  195.752  195.797  195.806  195.963  195.951  195.968  196.376  196.693  196.777  197.188  197.473  197.643  197.908  198.048  197.985  197.836  197.886  198.263  198.258  198.670  199.555  200.063  201.146  203.201  205.569  208.013  209.505  209.751  208.799  206.592  204.480  202.909  201.627  201.632  201.947  201.676  201.481  202.247  201.856  201.505  201.811  201.433  201.392  200.984  201.149  200.617  200.443  200.776  200.791  200.540  200.750  200.889  200.806  201.155  201.474  200.836  200.656  201.029  200.513  200.584  200.252  200.456  199.676  199.713  199.744  199.427  199.387  199.570  199.520  199.107  199.797  199.609  199.610  199.285  199.475  199.270  199.793  199.455  199.411  200.030  199.628  199.213  199.170  199.316  199.635  199.271  198.897  199.277  198.988  199.079  198.784  198.783  198.889  199.191  199.299  198.778  198.554  199.068  199.122  199.190  199.378  199.297  199.093  199.086  199.803  199.399  199.506  200.070  199.789  199.599  199.928  199.900  199.877  199.910  200.273  199.449  199.495  199.519  199.509  199.563  199.220  199.462  198.930  198.897  198.576  198.289  198.107  198.375  198.463  199.071  199.324  198.564  198.841  199.010  199.278  199.517  202.379  199.011 
DATE 2017:046:23:58:18 obsn  15 az 294 el 61 freq_MHz  1420.4000 Tsys 138.000 Tant 55.213 vlsr   18.27 glat -21.254 glon 121.937 source Andr 
Fstart 1419.397 fstop 1421.403 spacing 0.009375 bw    2.400 fbw    2.000 MHz nfreq 256 nsam 5242880 npoint 214 integ   241 sigma    0.092 bsw 0
Spectrum    221 integration periods
 193.959  194.367  194.632  194.976  195.408  195.526  197.358  196.006  195.886  195.580  195.661  195.336  194.992  195.140  194.512  194.390  194.224  193.751  193.497  193.806  193.925  194.253  193.946  194.195  194.614  194.291  194.700  194.815  195.275  195.285  195.403  195.602  195.825  196.063  195.924  196.055  195.887  196.145  196.179  196.047  196.223  196.438  196.195  196.011  195.972  195.965  195.954  195.723  195.937  196.027  196.254  195.803  195.676  195.663  195.894  195.598  195.309  195.265  195.526  195.345  195.331  195.125  195.428  196.978  195.407  195.383  195.823  196.129  200.590  199.745  196.523  197.170  196.504  195.837  195.619  196.016  195.521  195.553  195.561  195.767  195.707  195.681  196.154  196.502  196.534  196.922  197.201  197.409  197.658  197.814  197.766  197.595  197.682  198.068  198.023  198.418  199.340  199.867  200.934  202.982  205.352  207.800  209.336  209.544  208.603  206.302  204.227  202.700  201.399  201.368  201.682  201.469  201.238  201.953  201.579  201.287  201.609  201.198  201.162  200.752  200.902  200.385  200.215  200.489  200.535  200.331  200.510  200.590  200.541  200.925  201.222  200.610  200.402  200.777  200.259  200.343  200.011  200.168  199.422  199.459  199.490  199.207  199.154  199.337  199.354  198.871  199.579  199.403  199.380  199.071  199.287  199.064  199.534  199.223  199.152  199.790  199.408  198.978  198.935  199.061  199.396  199.008  198.635  199.039  198.778  198.847  198.553  198.523  198.637  198.948  199.081  198.562  198.333  198.825  198.847  198.931  199.164  198.995  198.882  198.866  199.568  199.148  199.297  199.798  199.554  199.366  199.663  199.637  199.725  199.698  200.043  199.158  199.289  199.313  199.301  199.325  199.012  199.304  198.705  198.662  198.302  198.046  197.924  198.231  198.267  198.836  199.099  198.312  198.618  198.742  199.094  199.340  202.106  198.740 
DATE 2017:046:23:58:31 obsn  16 az 294 el 61 freq_MHz  1420.4000 Tsys 138.000 Tant 55.782 vlsr   18.27 glat -21.254 glon 121.937 source Andr 
Fstart 1419.397 fstop 1421.403 spacing 0.009375 bw    2.400 fbw    2.000 MHz nfreq 256 nsam 5242880 npoint 214 integ   252 sigma    0.090 bsw 0
Spectrum    231 integration periods
 193.803  194.170  194.456  194.814  195.251  195.336  197.178  195.829  195.723  195.445  195.510  195.153  194.807  194.948  194.333  194.206  194.033  193.586  193.345  193.687  193.722  194.041  193.808  194.028  194.413  194.130  194.530  194.633  195.110  195.161  195.256  195.393  195.641  195.898  195.732  195.883  195.723  195.992  196.037  195.881  196.082  196.274  195.984  195.846  195.787  195.805  195.781  195.590  195.740  195.849  196.116  195.635  195.533  195.483  195.701  195.427  195.116  195.092  195.374  195.188  195.223  194.958  195.250  196.814  195.212  195.255  195.657  196.004  200.485  199.579  196.374  196.983  196.361  195.678  195.478  195.853  195.342  195.384  195.413  195.621  195.549  195.525  196.014  196.304  196.392  196.804  197.031  197.288  197.488  197.647  197.590  197.441  197.516  197.922  197.853  198.226  199.170  199.676  200.728  202.833  205.182  207.613  209.184  209.387  208.423  206.103  204.050  202.521  201.184  201.204  201.485  201.301  201.039  201.806  201.410  201.137  201.414  201.025  201.011  200.538  200.773  200.239  200.060  200.308  200.331  200.177  200.339  200.431  200.347  200.695  201.070  200.426  200.240  200.603  200.058  200.151  199.858  200.009  199.265  199.333  199.334  199.031  198.999  199.173  199.133  198.709  199.400  199.216  199.181  198.913  199.135  198.928  199.406  199.067  198.988  199.580  199.233  198.835  198.798  198.888  199.211  198.878  198.472  198.833  198.588  198.675  198.393  198.332  198.457  198.802  198.895  198.430  198.205  198.642  198.675  198.796  198.982  198.852  198.715  198.689  199.364  198.979  199.099  199.629  199.362  199.223  199.505  199.454  199.536  199.558  199.919  198.981  199.125  199.124  199.115  199.138  198.829  199.170  198.507  198.486  198.093  197.884  197.702  198.040  198.067  198.682  198.954  198.137  198.432  198.561  198.913  199.203  201.829  198.571 
DATE 2017:046:23:58:44 obsn  17 az 294 el 61 freq_MHz  1420.4000 Tsys 138.000 Tant 56.380 vlsr   18.27 glat -21.254 glon 121.937 source Andr 
Fstart 1419.397 fstop 1421.403 spacing 0.009375 bw    2.400 fbw    2.000 MHz nfreq 256 nsam 5242880 npoint 214 integ   263 sigma    0.088 bsw 0
Spectrum    241 integration periods
 193.727  194.137  194.452  194.791  195.166  195.311  197.149  195.764  195.716  195.425  195.470  195.144  194.749  194.880  194.340  194.180  194.016  193.546  193.328  193.636  193.674  194.016  193.793  193.962  194.373  194.100  194.498  194.616  195.074  195.105  195.200  195.330  195.630  195.845  195.676  195.819  195.650  195.959  196.024  195.866  196.038  196.279  195.976  195.858  195.769  195.759  195.737  195.629  195.728  195.810  196.068  195.615  195.480  195.471  195.716  195.422  195.072  195.059  195.346  195.116  195.160  194.916  195.258  196.803  195.183  195.179  195.625  195.995  200.473  199.533  196.452  196.969  196.315  195.638  195.453  195.855  195.329  195.364  195.391  195.623  195.528  195.490  195.989  196.247  196.372  196.783  196.998  197.242  197.450  197.617  197.590  197.421  197.479  197.917  197.733  198.154  199.143  199.663  200.759  202.830  205.142  207.532  209.155  209.377  208.393  206.059  203.991  202.480  201.184  201.185  201.406  201.273  201.059  201.782  201.346  201.095  201.402  200.997  201.017  200.516  200.712  200.192  199.983  200.256  200.323  200.114  200.278  200.395  200.309  200.698  201.049  200.402  200.265  200.594  200.046  200.131  199.797  199.952  199.192  199.308  199.276  198.979  198.970  199.134  199.075  198.652  199.405  199.187  199.149  198.872  199.103  198.919  199.333  199.003  198.976  199.505  199.172  198.790  198.751  198.821  199.147  198.815  198.432  198.763  198.518  198.650  198.353  198.255  198.423  198.741  198.882  198.365  198.166  198.562  198.629  198.748  198.917  198.830  198.649  198.647  199.366  198.936  199.031  199.543  199.271  199.177  199.446  199.393  199.473  199.552  199.884  198.888  199.079  199.127  199.046  199.043  198.767  199.097  198.497  198.395  198.008  197.858  197.650  197.995  198.020  198.604  198.902  198.098  198.383  198.536  198.874  199.164  201.678  198.487 
DATE 2017:046:23:58:57 obsn  18 az 294 el 61 freq_MHz  1420.4000 Tsys 138.000 Tant 56.128 vlsr   18.27 glat -21.254 glon 121.937 source Andr 
Fstart 1419.397 fstop 1421.403 spacing 0.009375 bw    2.400 fbw    2.000 MHz nfreq 256 nsam 5242880 npoint 214 integ   274 sigma    0.086 bsw 0
Spectrum    251 integration periods
 193.606  193.979  194.316  194.640  195.013  195.166  197.040  195.673  195.572  195.310  195.332  195.006  194.589  194.747  194.216  194.030  193.826  193.437  193.234  193.486  193.571  193.856  193.621  193.828  194.230  193.945  194.340  194.485  194.958  194.975  195.061  195.209  195.520  195.745  195.566  195.673  195.533  195.786  195.864  195.732  195.912  196.154  195.835  195.688  195.614  195.637  195.604  195.495  195.615  195.669  195.921  195.469  195.354  195.296  195.563  195.311  194.963  194.935  195.203  194.994  195.016  194.767  195.104  196.684  195.095  195.063  195.520  195.902  200.428  199.359  196.334  196.834  196.206  195.511  195.320  195.746  195.182  195.269  195.299  195.519  195.397  195.374  195.876  196.112  196.249  196.690  196.886  197.137  197.332  197.536  197.452  197.316  197.372  197.766  197.598  197.997  199.006  199.599  200.672  202.727  205.049  207.387  209.040  209.280  208.247  205.913  203.851  202.369  201.099  201.085  201.280  201.169  200.920  201.654  201.184  200.950  201.295  200.859  200.855  200.385  200.568  200.065  199.887  200.126  200.218  199.988  200.128  200.273  200.157  200.564  200.910  200.254  200.103  200.536  199.935  199.926  199.655  199.816  199.058  199.166  199.156  198.823  198.826  198.988  198.929  198.503  199.281  199.068  198.967  198.760  198.950  198.778  199.175  198.863  198.829  199.356  199.030  198.640  198.625  198.689  199.009  198.674  198.256  198.638  198.370  198.481  198.203  198.111  198.298  198.598  198.790  198.273  198.024  198.404  198.414  198.583  198.715  198.704  198.541  198.525  199.221  198.756  198.911  199.410  199.107  199.034  199.299  199.285  199.372  199.445  199.761  198.803  198.966  198.995  198.877  198.858  198.607  198.924  198.360  198.276  197.885  197.751  197.540  197.841  197.865  198.466  198.746  197.930  198.240  198.415  198.771  199.044  201.516  198.350 
DATE 2017:046:23:59:10 obsn  19 az 294 el 61 freq_MHz  1420.4000 Tsys 138.000 Tant 57.375 vlsr   18.27 glat -21.254 glon 121.937 source Andr 
Fstart 1419.397 fstop 1421.403 spacing 0.009375 bw    2.400 fbw    2.000 MHz nfreq 256 nsam 5242880 npoint 214 integ   285 sigma    0.084 bsw 0
Spectrum    261 integration periods
 193.460  193.792  194.163  194.469  194.851  195.005  196.873  195.525  195.438  195.150  195.204  194.842  194.439  194.592  194.107  193.895  193.723  193.328  193.095  193.365  193.442  193.716  193.498  193.673  194.041  193.857  194.236  194.339  194.810  194.869  194.916  195.078  195.356  195.575  195.414  195.490  195.419  195.667  195.706  195.612  195.745  196.009  195.708  195.537  195.500  195.460  195.441  195.361  195.442  195.528  195.784  195.330  195.183  195.214  195.426  195.192  194.834  194.802  195.035  194.823  194.879  194.618  194.985  196.580  194.966  194.890  195.334  195.775  200.388  199.201  196.170  196.696  196.036  195.385  195.183  195.573  195.041  195.127  195.155  195.409  195.279  195.267  195.785  195.993  196.111  196.522  196.696  197.025  197.198  197.418  197.283  197.206  197.247  197.694  197.484  197.843  198.889  199.515  200.559  202.584  204.895  207.239  208.888  209.174  208.086  205.785  203.702  202.208  200.960  200.937  201.127  201.046  200.789  201.492  201.063  200.816  201.156  200.684  200.679  200.269  200.430  199.908  199.779  200.011  200.065  199.834  199.995  200.088  200.030  200.470  200.754  200.143  199.974  200.410  199.791  199.788  199.506  199.672  198.937  199.029  198.995  198.679  198.653  198.814  198.772  198.356  199.124  198.943  198.788  198.639  198.821  198.647  198.996  198.701  198.734  199.192  198.859  198.511  198.498  198.541  198.862  198.522  198.109  198.509  198.220  198.330  198.120  198.024  198.133  198.461  198.640  198.098  197.912  198.261  198.257  198.455  198.614  198.558  198.391  198.385  199.049  198.592  198.786  199.333  198.971  198.879  199.193  199.191  199.240  199.295  199.657  198.685  198.815  198.852  198.733  198.704  198.486  198.809  198.246  198.111  197.768  197.649  197.399  197.733  197.738  198.343  198.601  197.815  198.102  198.261  198.654  198.974  201.330  198.231 
DATE 2017:046:23:59:23 obsn  20 az 294 el 61 freq_MHz  1420.4000 Tsys 138.000 Tant 57.885 vlsr   18.27 glat -21.254 glon 121.937 source Andr 
Fstart 1419.397 fstop 1421.403 spacing 0.009375 bw    2.400 fbw    2.000 MHz nfreq 256 nsam 5242880 npoint 214 integ   296 sigma    0.083 bsw 0
Spectrum    271 integration periods
 193.346  193.681  194.056  194.374  194.736  194.908  196.772  195.426  195.340  195.047  195.102  194.712  194.362  194.490  194.016  193.811  193.660  193.224  192.993  193.306  193.349  193.649  193.440  193.562  193.967  193.758  194.143  194.233  194.732  194.769  194.830  194.999  195.269  195.453  195.324  195.420  195.303  195.576  195.626  195.569  195.727  195.946  195.612  195.432  195.419  195.386  195.355  195.293  195.372  195.422  195.700  195.294  195.117  195.169  195.357  195.102  194.793  194.754  194.971  194.739  194.784  194.552  194.910  196.537  194.870  194.798  195.294  195.742  200.401  199.188  196.009  196.623  196.009  195.352  195.145  195.537  195.003  195.093  195.105  195.386  195.250  195.261  195.759  195.940  196.033  196.462  196.674  196.955  197.141  197.387  197.281  197.154  197.229  197.644  197.446  197.806  198.846  199.511  200.551  202.520  204.878  207.195  208.839  209.122  208.004  205.749  203.696  202.182  200.927  200.901  201.084  201.031  200.713  201.473  201.035  200.761  201.104  200.610  200.651  200.194  200.371  199.849  199.754  199.964  200.011  199.790  199.929  200.013  199.995  200.454  200.746  200.103  199.910  200.362  199.762  199.725  199.452  199.617  198.898  198.979  198.956  198.653  198.611  198.786  198.718  198.342  199.029  198.918  198.747  198.567  198.776  198.595  198.935  198.650  198.685  199.178  198.823  198.449  198.461  198.462  198.825  198.515  198.070  198.467  198.163  198.349  198.053  197.984  198.126  198.409  198.584  198.043  197.820  198.191  198.204  198.416  198.576  198.476  198.347  198.309  198.996  198.524  198.728  199.263  198.907  198.848  199.182  199.143  199.160  199.226  199.620  198.626  198.737  198.793  198.651  198.638  198.461  198.769  198.188  198.090  197.726  197.613  197.358  197.657  197.680  198.284  198.536  197.727  198.058  198.157  198.589  198.952  201.211  198.090 
DATE 2017:046:23:59:36 obsn  21 az 294 el 61 freq_MHz  1420.4000 Tsys 138.000 Tant 58.529 vlsr   18.27 glat -21.254 glon 121.937 source Andr 
Fstart 1419.397 fstop 1421.403 spacing 0.009375 bw    2.400 fbw    2.000 MHz nfreq 256 nsam 5242880 npoint 214 integ   307 sigma    0.081 bsw 0
Spectrum    281 integration periods
 193.281  193.614  193.984  194.263  194.663  194.868  196.672  195.348  195.279  194.930  195.012  194.645  194.275  194.382  193.929  193.733  193.584  193.126  192.915  193.276  193.270  193.509  193.356  193.465  193.859  193.661  194.034  194.147  194.655  194.729  194.736  194.944  195.164  195.326  195.243  195.324  195.205  195.476  195.564  195.503  195.653  195.844  195.517  195.404  195.342  195.339  195.308  195.196  195.267  195.311  195.584  195.198  195.047  195.110  195.272  194.988  194.701  194.653  194.926  194.665  194.675  194.467  194.843  196.427  194.767  194.688  195.202  195.667  200.305  199.063  196.095  196.535  195.888  195.268  195.049  195.470  194.941  195.009  195.025  195.290  195.184  195.159  195.674  195.879  195.978  196.340  196.585  196.837  197.030  197.308  197.181  197.066  197.120  197.583  197.362  197.684  198.786  199.455  200.496  202.437  204.807  207.139  208.767  209.071  207.890  205.667  203.623  202.087  200.858  200.825  201.006  200.962  200.627  201.407  200.949  200.631  201.009  200.554  200.565  200.127  200.312  199.771  199.639  199.854  199.908  199.700  199.852  199.893  199.902  200.396  200.641  200.006  199.816  200.260  199.695  199.614  199.348  199.542  198.809  198.892  198.873  198.553  198.499  198.677  198.601  198.248  198.916  198.824  198.680  198.492  198.702  198.505  198.844  198.581  198.548  199.144  198.731  198.349  198.404  198.337  198.710  198.433  197.994  198.382  198.077  198.207  197.999  197.887  198.067  198.282  198.494  198.006  197.745  198.077  198.146  198.328  198.464  198.386  198.236  198.266  198.886  198.427  198.657  199.145  198.818  198.756  199.066  199.051  199.037  199.128  199.514  198.580  198.663  198.672  198.556  198.504  198.347  198.661  198.077  198.017  197.654  197.495  197.285  197.541  197.553  198.166  198.433  197.683  197.963  198.044  198.477  198.876  201.026  197.967 
DATE 2017:046:23:59:57 obsn  22 az 294 el 60 freq_MHz  1420.4000 Tsys 138.000 Tant 55.122 vlsr   18.27 glat -21.254 glon 121.937 source Andr 
Fstart 1419.397 fstop 1421.403 spacing 0.009375 bw    2.400 fbw    2.000 MHz nfreq 256 nsam 5242880 npoint 214 integ   318 sigma    0.080 bsw 0
Spectrum    291 integration periods
 193.132  193.543  193.901  194.125  194.541  194.754  196.557  195.257  195.134  194.836  194.906  194.542  194.147  194.277  193.846  193.634  193.470  193.027  192.793  193.193  193.148  193.383  193.229  193.365  193.759  193.511  193.915  194.053  194.570  194.606  194.621  194.810  195.039  195.207  195.139  195.230  195.093  195.348  195.414  195.344  195.556  195.713  195.397  195.294  195.227  195.248  195.186  195.101  195.179  195.214  195.451  195.084  194.917  194.984  195.133  194.865  194.553  194.535  194.836  194.538  194.526  194.345  194.700  196.296  194.651  194.604  195.099  195.582  200.235  198.996  195.878  196.403  195.742  195.165  194.919  195.327  194.824  194.849  194.904  195.146  195.074  195.052  195.596  195.765  195.852  196.211  196.456  196.735  196.906  197.168  197.071  196.919  196.993  197.448  197.205  197.521  198.657  199.345  200.389  202.273  204.663  206.990  208.624  208.931  207.783  205.545  203.445  201.945  200.769  200.742  200.835  200.833  200.482  201.267  200.835  200.517  200.850  200.427  200.420  199.981  200.181  199.660  199.544  199.753  199.773  199.550  199.706  199.756  199.807  200.287  200.505  199.859  199.688  200.135  199.553  199.481  199.263  199.440  198.641  198.757  198.708  198.391  198.356  198.547  198.460  198.114  198.780  198.688  198.568  198.364  198.536  198.396  198.745  198.434  198.416  199.000  198.570  198.225  198.294  198.207  198.599  198.259  197.867  198.228  197.937  198.073  197.854  197.781  197.926  198.150  198.314  197.870  197.599  197.999  198.057  198.228  198.326  198.269  198.105  198.142  198.752  198.306  198.548  199.016  198.668  198.629  198.912  198.943  198.904  198.981  199.395  198.467  198.530  198.554  198.444  198.338  198.198  198.559  197.977  197.879  197.498  197.380  197.190  197.390  197.428  198.036  198.263  197.512  197.821  197.882  198.323  198.804  200.814  197.854 
