DATE 2017:116:15:01:57 obsn 413 az 292 el 56 freq_MHz  1417.5000 Tsys 165.000 Tant 447.503 vlsr  -32.85 glat  5.869 glon 76.016 azoff 0.00 eloff 0.00 source CygnusA 
Fstart 1416.497 fstop 1418.503 spacing 0.009375 bw    2.400 fbw    2.000 MHz nfreq 256 nsam 5242880 npoint 214 integ    11 sigma    0.516 bsw 0
Spectrum     10 integration periods
 452.563  453.669  454.569  455.609  456.451  455.039  457.745  454.870  454.556  454.236  455.645  454.215  454.924  452.327  451.838  456.081  454.302  453.562  454.456  455.911  458.462  453.846  457.468  451.816  453.145  454.425  454.990  455.283  453.279  456.745  457.483  456.139  454.796  452.512  454.992  457.636  453.350  454.275  454.906  452.983  455.749  455.487  457.082  452.875  452.930  454.480  454.527  451.443  452.978  458.295  453.550  456.050  450.626  451.458  454.511  454.919  452.950  455.211  455.677  454.270  453.043  453.152  456.074  454.905  451.826  453.553  452.719  453.024  455.904  457.304  455.630  454.660  453.287  451.287  453.208  456.897  452.182  450.893  453.454  452.727  454.790  451.127  454.402  455.358  451.297  453.348  453.494  451.463  451.714  454.895  453.228  450.872  455.703  451.852  453.870  453.918  451.485  450.634  451.970  452.743  453.003  451.191  455.133  453.695  450.418  450.713  453.944  465.690  451.082  454.297  451.336  448.661  452.268  451.048  450.947  450.910  453.329  451.570  450.036  453.292  455.274  447.978  451.206  452.736  451.125  452.130  451.483  452.509  451.376  451.736  450.651  452.110  452.533  451.924  451.472  450.604  452.657  451.348  451.230  452.056  451.998  451.208  451.237  450.824  450.424  449.469  448.920  451.265  450.378  449.174  448.969  451.097  450.547  451.564  449.366  448.979  448.372  450.111  447.577  450.419  449.077  450.953  449.875  449.878  450.101  449.067  447.654  449.297  452.187  449.391  447.567  449.391  446.926  447.579  449.747  450.320  451.598  447.355  449.520  447.139  448.044  450.820  450.287  448.260  446.210  446.583  446.531  449.488  450.282  449.276  448.139  449.349  449.268  449.172  447.562  450.977  449.704  445.887  447.894  448.208  446.147  448.429  447.754  448.250  446.454  445.571  444.605  447.652  445.660  448.617  446.582  447.250  450.299  448.101 
DATE 2017:116:15:02:21 obsn 414 az 283 el 56 freq_MHz  1417.5000 Tsys 165.000 Tant 266.614 vlsr  -32.85 glat  5.869 glon 76.016 azoff -8.89 eloff 0.00 source CygnusA 
Fstart 1416.497 fstop 1418.503 spacing 0.009375 bw    2.400 fbw    2.000 MHz nfreq 256 nsam 5242880 npoint 214 integ     8 sigma    1.233 bsw 3
Spectrum      7 integration periods
 441.077  435.889  435.620  433.839  435.351  434.410  433.311  435.971  434.959  435.459  435.853  438.362  437.568  437.359  434.989  433.696  434.821  436.498  434.431  439.179  437.449  435.240  435.815  435.306  433.333  435.214  436.501  435.989  437.874  436.174  435.852  434.245  435.214  433.815  435.014  435.121  435.452  436.123  434.111  437.886  435.627  435.495  435.978  435.638  435.372  434.139  433.454  431.302  435.777  438.802  432.690  433.526  430.756  437.858  433.164  436.695  436.909  435.586  432.901  435.615  432.172  433.816  436.930  432.502  433.902  436.048  437.028  438.547  437.932  434.629  432.068  437.334  437.674  432.926  434.419  434.575  434.798  437.071  431.772  434.185  435.201  436.927  436.358  434.782  435.104  436.437  435.155  433.728  434.476  435.569  434.632  436.383  436.777  432.729  433.663  435.669  433.973  433.274  433.965  437.211  433.765  434.194  436.365  432.608  434.580  432.941  438.432  439.415  435.293  437.693  437.656  434.612  436.590  435.461  433.286  436.150  437.115  434.745  434.081  436.446  435.190  433.907  434.445  435.007  438.585  436.108  433.995  433.314  436.147  437.810  440.976  438.125  436.783  437.835  440.024  435.405  439.075  435.202  436.296  441.927  437.300  436.093  434.395  435.010  433.138  434.784  436.472  435.491  435.861  437.922  436.475  437.444  438.433  435.915  435.352  436.114  435.841  436.960  439.427  436.636  437.209  437.956  438.609  434.019  436.122  436.740  436.074  436.512  435.378  436.321  435.027  437.794  437.782  436.199  437.121  440.958  438.103  436.741  436.806  436.603  436.301  438.330  438.105  437.998  437.987  437.555  441.477  440.925  438.943  434.265  438.072  435.248  435.977  437.673  435.930  437.388  438.523  432.905  438.865  436.486  439.700  436.499  438.552  437.280  439.898  440.200  439.172  437.897  439.394  439.791  439.632  433.326  437.034  436.080 
DATE 2017:116:15:02:45 obsn 415 az 292 el 56 freq_MHz  1417.5000 Tsys 165.000 Tant 300.592 vlsr  -32.85 glat  5.869 glon 76.016 azoff 0.00 eloff 0.00 source CygnusA 
Fstart 1416.497 fstop 1418.503 spacing 0.009375 bw    2.400 fbw    2.000 MHz nfreq 256 nsam 5242880 npoint 214 integ    19 sigma    0.791 bsw 4
Spectrum     17 integration periods
  13.398   15.066   13.622   12.242   14.118   15.096   15.248   14.280   14.738   14.531   14.567   13.921   12.937   13.114   12.609   16.156   12.611   12.743   12.960   13.168   13.539   14.106   14.494   14.622   15.711   15.020   13.684   14.192   13.286   14.472   12.237   14.145   14.496   15.116   13.356   14.214   13.180   13.566   12.251   12.444   14.464   14.896   14.553   13.993   11.982   15.295   14.688   15.668   13.631   13.392   13.008   12.539   14.750   12.514   14.582   13.712   14.344   12.973   15.352   13.793   14.543   15.840   14.752   14.526   14.412   13.247   13.459   13.075   11.649   14.979   14.133   11.487   12.951   15.067   13.711   15.337   13.274   13.235   14.742   13.118   15.328   13.691   14.377   14.922   13.565   12.942   15.126   14.368   13.758   13.771   14.438   12.388   13.308   13.222   15.307   13.656   14.334   14.283   13.095   13.409   13.569   14.087   12.852   12.890   13.781   15.322   13.365   15.200   12.659   13.987   12.303   14.356   14.602   12.760   12.779   12.788   13.919   13.286   12.965   11.970   13.305   14.116   14.683   14.612   12.516   13.881   12.744   15.620   13.198   13.622   13.134   14.547   14.662   13.832   13.101   14.298   12.966   14.010   14.610   14.135   14.071   14.042   14.876   14.027   12.381   14.277   14.492   13.345   14.949   11.979   12.396   12.423   12.445   12.170   13.857   13.673   12.570   12.834   11.693   13.157   13.675   14.051   12.681   13.923   13.738   14.352   13.989   15.470   14.366   14.014   13.649   13.428   14.496   13.653   14.497   13.114   13.280   12.685   12.077   13.486   13.965   13.169   14.296   13.706   14.051   13.133   13.385   12.522   15.327   13.385   13.421   12.724   13.583   11.561   14.994   12.903   12.171   14.210   13.928   12.068   12.162   14.541   11.828   13.085   12.570   12.106   11.515   12.652   12.478   12.417   11.357   14.874   14.811   13.278 
DATE 2017:116:15:03:09 obsn 416 az 301 el 56 freq_MHz  1417.5000 Tsys 165.000 Tant 268.487 vlsr  -32.85 glat  5.869 glon 76.016 azoff 8.85 eloff 0.00 source CygnusA 
Fstart 1416.497 fstop 1418.503 spacing 0.009375 bw    2.400 fbw    2.000 MHz nfreq 256 nsam 5242880 npoint 214 integ    29 sigma    0.628 bsw 5
Spectrum     27 integration periods
  12.353   13.709   12.509   12.116   13.025   13.744   14.109   13.748   13.291   13.247   13.126   12.724   12.612   12.465   12.150   14.513   12.581   12.717   12.249   12.403   12.599   12.915   12.936   13.007   13.415   13.696   11.929   12.848   12.893   13.679   11.953   12.254   12.726   14.248   12.243   14.312   13.027   12.104   11.993   11.732   12.588   13.692   13.850   12.634   12.281   13.509   13.744   14.218   13.413   11.818   12.252   12.634   12.757   11.240   13.432   11.923   12.349   11.932   12.665   12.033   14.010   13.566   14.207   13.990   13.767   12.927   12.132   12.661   10.904   13.762   12.741   11.519   11.458   13.470   12.976   14.777   12.971   12.477   13.149   12.214   14.183   12.893   13.130   13.203   12.965   12.025   13.274   13.294   13.006   13.100   12.839   12.423   11.663   12.852   13.525   11.998   12.125   13.123   12.171   12.723   13.111   12.194   12.715   11.978   13.218   14.281   13.330   14.653   12.375   11.725   11.725   12.950   13.438   12.968   12.095   13.384   13.559   12.116   12.130   11.559   13.489   13.371   14.011   14.335   11.702   13.587   12.967   13.813   12.189   12.241   11.772   13.267   12.832   12.703   11.481   13.275   12.475   13.482   13.571   12.799   13.449   12.915   13.888   12.759   12.237   12.842   14.245   13.348   13.832   11.468   12.139   11.551   12.561   11.898   12.787   12.640   12.220   12.066   11.307   12.246   12.653   13.435   12.105   12.907   12.470   13.308   12.685   14.288   14.418   12.623   12.903   12.934   13.743   12.338   12.269   13.238   12.440   12.649   12.193   13.038   12.808   12.288   12.927   13.522   12.870   12.271   13.034   11.625   13.099   12.305   12.265   12.356   13.049   12.146   13.351   12.375   11.924   13.334   12.396   11.727   12.200   12.859   10.980   12.876   11.913   11.107   10.758   11.263   11.537   12.522   10.567   13.706   13.486   11.741 
DATE 2017:116:15:03:41 obsn 417 az 292 el 55 freq_MHz  1417.5000 Tsys 165.000 Tant 301.762 vlsr  -32.85 glat  5.869 glon 76.016 azoff 0.00 eloff 0.00 source CygnusA 
Fstart 1416.497 fstop 1418.503 spacing 0.009375 bw    2.400 fbw    2.000 MHz nfreq 256 nsam 5242880 npoint 214 integ    40 sigma    0.536 bsw 6
Spectrum     37 integration periods
  13.303   14.617   14.010   13.783   14.355   15.191   15.437   15.306   14.824   14.542   15.032   14.145   13.753   13.715   14.364   14.923   14.129   14.497   13.731   13.859   14.120   14.272   14.329   14.174   14.547   15.239   14.226   14.767   14.404   15.278   13.936   13.775   14.315   15.567   14.328   15.730   14.775   13.541   13.288   13.356   13.772   14.763   15.476   14.217   13.784   14.421   15.392   16.024   14.783   13.971   14.342   14.763   14.161   13.140   14.861   13.813   14.392   13.975   13.833   13.724   14.964   14.529   15.166   15.040   14.511   14.022   13.459   13.911   12.759   14.974   14.006   13.322   13.189   14.871   14.530   15.642   14.183   13.915   14.292   13.810   15.498   14.483   14.482   13.064   14.736   13.471   14.476   14.780   14.552   14.231   14.334   13.995   13.555   14.147   14.988   14.235   13.560   14.450   13.541   14.673   14.291   13.784   14.633   14.619   14.191   15.348   14.233   16.722   13.420   13.599   12.460   13.883   14.500   14.404   13.433   14.769   14.629   13.495   13.896   13.263   14.334   14.696   14.911   14.897   12.792   14.525   14.152   14.695   13.205   13.618   13.276   13.987   14.128   14.347   13.300   14.429   13.900   14.516   15.223   14.248   15.203   14.437   15.138   13.914   13.403   13.651   15.049   14.484   14.880   13.096   13.785   13.166   13.899   13.192   14.166   14.178   13.521   13.069   12.704   13.971   14.227   14.644   13.885   13.811   14.070   14.275   13.555   14.978   15.459   13.416   14.027   14.323   14.073   13.326   13.561   14.371   14.236   13.601   13.422   13.491   13.260   13.447   13.765   14.617   14.092   13.713   13.658   13.248   14.258   13.442   13.853   13.635   14.216   12.843   14.300   13.004   13.853   14.652   13.182   13.468   13.550   13.686   13.072   14.328   13.484   13.021   12.623   12.929   12.766   13.961   12.798   14.614   15.246   13.409 
DATE 2017:116:15:04:05 obsn 418 az 284 el 55 freq_MHz  1417.5000 Tsys 165.000 Tant 272.455 vlsr  -32.85 glat  5.869 glon 76.016 azoff -8.81 eloff 0.00 source CygnusA 
Fstart 1416.497 fstop 1418.503 spacing 0.009375 bw    2.400 fbw    2.000 MHz nfreq 256 nsam 5242880 npoint 214 integ    51 sigma    0.476 bsw 7
Spectrum     47 integration periods
  13.065   14.173   14.246   13.815   13.845   15.180   15.488   14.786   14.436   13.928   14.744   14.081   13.370   13.711   13.967   15.223   13.868   14.205   14.076   13.845   14.462   14.221   14.337   14.084   14.732   14.987   13.861   14.473   14.121   15.055   13.785   14.054   14.042   14.940   14.206   14.968   15.102   13.548   13.438   13.579   13.759   14.463   15.114   13.455   13.971   13.696   15.004   15.727   14.650   14.148   14.182   14.405   14.174   13.638   14.600   14.047   14.058   14.073   13.691   13.739   14.725   13.858   14.152   14.372   13.824   13.966   13.840   13.339   12.784   14.648   14.127   13.252   13.241   14.831   14.302   15.143   13.716   13.880   13.871   13.484   15.133   13.921   14.559   13.018   14.835   13.411   14.351   14.451   13.878   13.973   13.851   13.493   13.114   13.703   14.445   14.210   13.826   14.121   13.217   14.270   14.078   13.606   14.582   14.173   13.496   14.253   13.675   15.904   13.358   13.328   12.670   13.574   14.207   14.385   13.397   14.483   14.119   14.038   13.681   12.834   14.111   14.378   14.394   13.814   12.947   14.545   13.866   13.977   13.342   12.589   12.941   13.619   13.851   14.390   12.863   14.516   13.751   13.974   14.945   13.426   14.821   13.968   14.840   13.498   12.823   13.233   14.429   14.120   13.753   12.728   13.597   12.932   13.542   13.008   13.723   13.654   13.592   13.710   12.377   13.600   14.135   14.373   13.108   14.062   13.738   13.928   13.225   14.425   14.499   13.629   13.565   13.702   13.384   13.089   13.057   13.662   13.760   13.162   13.459   13.326   12.811   13.188   13.604   14.430   14.010   13.362   13.382   12.660   14.024   13.137   13.677   13.385   14.102   12.624   14.057   13.197   13.232   14.070   12.725   13.174   12.824   12.865   12.688   14.308   12.807   12.598   12.148   12.076   12.509   13.238   12.432   13.970   14.301   12.846 
DATE 2017:116:15:04:29 obsn 419 az 292 el 55 freq_MHz  1417.5000 Tsys 165.000 Tant 305.377 vlsr  -32.85 glat  5.869 glon 76.016 azoff 0.00 eloff 0.00 source CygnusA 
Fstart 1416.497 fstop 1418.503 spacing 0.009375 bw    2.400 fbw    2.000 MHz nfreq 256 nsam 5242880 npoint 214 integ    62 sigma    0.432 bsw 8
Spectrum     57 integration periods
  12.668   13.461   13.786   13.304   13.180   14.450   14.625   14.322   13.879   13.460   14.182   13.889   12.863   13.457   13.763   14.876   13.307   13.664   13.888   13.608   13.989   13.878   14.163   13.686   14.596   14.213   13.450   14.314   13.676   14.836   13.077   13.759   13.885   14.464   13.765   14.427   14.548   12.864   12.920   13.158   13.385   13.987   14.725   13.181   13.355   13.372   14.460   14.667   14.379   13.879   13.831   13.787   13.610   12.993   14.137   13.635   13.904   13.966   13.365   13.390   14.144   13.621   14.175   14.023   13.371   13.269   13.586   13.071   12.587   14.481   13.825   12.823   12.565   14.414   14.072   14.772   13.285   13.327   13.115   13.043   14.596   13.698   14.372   13.051   14.530   13.390   13.967   13.630   13.366   13.536   13.248   13.224   12.720   13.092   14.035   13.595   13.263   13.751   12.685   14.057   13.439   13.212   14.189   13.987   12.936   13.566   13.306   15.701   13.263   13.104   12.502   13.355   13.765   13.967   12.705   13.803   13.476   13.464   13.179   12.871   14.072   13.680   13.822   13.244   12.456   13.928   13.183   13.202   12.814   12.133   12.711   12.965   13.145   13.358   12.167   13.706   12.730   13.684   13.919   13.219   14.278   13.526   14.547   12.735   12.524   12.639   14.060   13.091   13.089   12.581   13.337   12.439   13.230   12.330   13.431   12.804   12.791   13.045   11.968   13.264   13.579   13.670   12.545   13.476   13.320   13.487   12.882   13.833   13.969   13.044   13.072   12.977   12.823   12.747   12.816   13.447   13.071   12.762   13.232   13.021   12.570   12.501   13.220   13.649   13.629   12.888   12.897   12.146   13.358   12.551   12.944   12.854   13.743   12.192   13.582   12.453   12.717   13.045   12.354   12.502   12.347   12.043   12.224   13.543   12.377   11.958   11.390   11.509   12.129   12.615   11.694   13.187   13.750   12.543 
DATE 2017:116:15:04:53 obsn 420 az 301 el 55 freq_MHz  1417.5000 Tsys 165.000 Tant 298.060 vlsr  -32.85 glat  5.869 glon 76.016 azoff 8.78 eloff 0.00 source CygnusA 
Fstart 1416.497 fstop 1418.503 spacing 0.009375 bw    2.400 fbw    2.000 MHz nfreq 256 nsam 5242880 npoint 214 integ    73 sigma    0.398 bsw 9
Spectrum     67 integration periods
 455.213  450.505  451.311  448.567  448.926  449.178  450.246  450.259  450.381  450.642  449.534  450.186  449.509  449.865  448.919  450.595  449.128  449.904  448.812  449.969  450.690  449.940  449.973  449.977  449.283  449.619  450.772  449.967  450.418  451.897  450.878  450.134  450.272  449.622  449.091  450.941  450.077  450.433  451.043  451.467  450.761  449.825  450.726  449.796  449.013  450.684  449.656  448.427  449.840  451.094  449.459  448.597  448.389  449.442  449.222  451.792  448.561  449.147  449.290  449.900  449.126  450.727  451.387  449.529  449.856  449.952  449.596  450.043  451.041  450.788  449.494  449.929  449.230  448.448  449.747  450.563  449.178  449.523  448.824  449.090  449.595  450.967  450.794  452.303  449.030  449.821  449.176  448.564  447.998  450.655  449.699  449.532  450.070  448.563  449.162  451.155  448.907  448.557  449.894  449.597  447.833  448.513  449.925  449.246  448.595  449.236  451.453  453.788  448.937  449.575  449.029  449.466  449.936  449.388  449.715  450.419  450.225  448.413  448.565  450.404  449.296  449.797  449.632  450.600  450.454  451.145  450.167  449.911  449.530  450.353  451.169  450.960  450.596  451.075  450.686  450.456  451.171  450.216  450.460  451.649  450.764  449.685  450.335  450.102  449.928  450.841  450.290  450.941  450.966  451.585  449.587  450.613  450.283  450.413  449.162  450.598  451.034  450.636  450.817  450.790  449.894  450.756  451.557  450.016  450.358  450.117  449.929  450.996  450.948  450.212  450.324  451.361  450.003  450.259  450.270  451.275  450.843  450.626  449.567  450.553  450.315  451.484  451.887  451.860  450.357  450.907  450.608  451.641  451.600  450.696  450.802  450.342  451.135  450.771  450.345  451.317  450.626  449.205  450.460  450.383  451.544  451.247  451.381  451.969  452.288  452.093  452.020  451.562  451.711  452.347  449.934  449.213  450.303  449.492 
DATE 2017:116:15:05:06 obsn 421 az 301 el 55 freq_MHz  1417.5000 Tsys 165.000 Tant 267.917 vlsr  -32.85 glat  5.869 glon 76.016 azoff 8.78 eloff 0.00 source CygnusA 
Fstart 1416.497 fstop 1418.503 spacing 0.009375 bw    2.400 fbw    2.000 MHz nfreq 256 nsam 5242880 npoint 214 integ    84 sigma    0.372 bsw 9
Spectrum     77 integration periods
  15.177   15.615   15.977   15.583   15.505   16.325   16.049   16.086   15.876   15.685   16.338   16.342   15.092   15.472   16.122   16.844   15.725   15.882   15.670   16.296   16.094   15.653   16.203   15.591   16.460   16.046   15.731   16.826   15.914   16.636   15.445   15.837   15.957   16.562   16.089   16.248   16.154   15.365   15.280   15.514   15.978   16.538   17.225   15.659   16.016   15.667   16.405   16.582   16.453   16.471   16.024   15.959   15.841   15.503   16.390   15.875   16.172   16.123   15.802   15.412   16.224   15.871   16.751   16.634   15.737   15.675   15.998   15.697   15.272   16.275   15.856   15.004   14.851   16.232   16.251   16.339   15.485   15.695   15.502   15.508   16.779   15.592   16.317   15.658   16.640   15.677   15.959   15.625   15.377   15.833   15.363   15.530   15.257   15.636   15.764   16.081   15.652   15.798   15.324   16.081   15.342   15.767   16.117   15.968   15.025   15.797   15.677   17.874   15.471   15.539   15.006   15.535   16.008   15.993   15.348   15.957   15.703   15.207   14.993   15.334   16.110   15.789   15.969   15.091   14.321   16.028   15.002   15.355   14.943   14.216   14.887   15.292   15.208   15.639   14.599   15.913   15.067   15.427   15.595   15.510   16.034   15.536   16.067   15.009   14.545   15.092   16.090   15.181   15.144   15.230   15.353   14.738   15.333   14.728   15.684   14.946   14.911   15.044   14.715   15.381   15.471   15.853   14.652   15.837   15.587   15.505   14.734   15.630   15.744   15.073   15.301   15.024   14.935   14.707   15.203   15.104   15.130   14.650   14.965   14.992   14.712   15.097   14.903   16.093   15.480   14.613   15.127   14.276   15.091   14.252   14.925   15.298   16.008   14.428   15.268   14.636   14.438   15.057   14.944   14.781   14.606   14.523   14.410   15.769   14.888   13.796   14.036   13.891   14.617   14.391   14.202   15.166   15.479   14.443 
DATE 2017:116:15:05:30 obsn 422 az 292 el 55 freq_MHz  1417.5000 Tsys 165.000 Tant 300.309 vlsr  -32.85 glat  5.869 glon 76.016 azoff 0.00 eloff 0.00 source CygnusA 
Fstart 1416.497 fstop 1418.503 spacing 0.009375 bw    2.400 fbw    2.000 MHz nfreq 256 nsam 5242880 npoint 214 integ    95 sigma    0.350 bsw 10
Spectrum     87 integration periods
  15.346   15.924   16.110   15.753   15.645   16.321   15.896   15.908   15.837   15.776   16.128   16.273   15.148   15.260   16.194   16.636   15.661   16.016   15.867   16.390   16.098   15.990   16.293   15.624   16.509   16.194   15.823   16.987   16.010   16.554   15.552   15.979   15.730   16.434   16.290   16.237   16.277   15.308   15.138   15.387   15.881   16.563   17.243   15.768   16.021   15.436   16.578   16.541   16.174   16.561   16.052   15.943   15.824   15.559   16.342   16.151   16.224   16.145   15.845   15.537   15.965   15.986   16.742   16.358   15.862   15.830   15.918   15.817   15.128   16.279   15.897   15.085   15.121   16.150   16.232   16.463   15.661   15.501   15.646   15.793   16.544   15.381   16.221   15.345   16.453   15.544   16.107   15.560   15.558   16.035   15.525   15.668   15.343   15.958   15.685   16.064   15.628   15.639   15.333   16.071   15.463   15.712   16.249   16.195   15.083   15.905   15.585   18.186   15.575   15.567   15.128   15.444   16.197   15.781   15.284   15.727   15.588   15.387   15.091   15.504   16.187   15.746   15.790   14.822   14.465   15.958   15.177   15.231   14.850   14.275   14.769   15.229   15.027   15.369   14.631   15.912   15.033   15.595   15.771   15.493   15.784   15.437   15.700   15.017   14.562   15.053   16.064   15.222   14.974   14.892   15.354   14.741   15.376   14.601   15.640   14.696   14.868   14.849   14.978   15.382   15.054   15.830   14.646   15.705   15.442   15.459   14.803   15.528   16.233   15.093   15.324   14.809   14.797   14.654   15.243   15.160   15.256   14.865   15.017   14.737   14.715   14.748   14.828   15.884   15.657   14.574   15.084   14.331   15.014   14.070   14.953   15.157   15.873   14.389   15.225   14.641   14.613   14.971   15.077   14.689   14.640   14.562   14.303   15.410   14.786   13.954   14.240   14.092   14.516   14.172   14.160   15.157   15.005   14.410 
DATE 2017:116:15:05:54 obsn 423 az 284 el 55 freq_MHz  1417.5000 Tsys 165.000 Tant 274.305 vlsr  -32.85 glat  5.869 glon 76.016 azoff -8.74 eloff 0.00 source CygnusA 
Fstart 1416.497 fstop 1418.503 spacing 0.009375 bw    2.400 fbw    2.000 MHz nfreq 256 nsam 5242880 npoint 214 integ   106 sigma    0.331 bsw 11
Spectrum     97 integration periods
  14.553   15.178   15.425   14.874   14.879   15.466   15.157   15.212   15.044   15.204   15.288   15.596   14.272   14.551   15.418   15.832   14.923   15.260   15.189   15.568   15.351   15.188   15.552   14.881   15.784   15.494   15.271   16.135   15.332   15.786   14.726   15.175   15.076   15.529   15.483   15.364   15.474   14.566   14.528   14.749   15.319   16.043   16.446   15.074   15.216   14.702   15.775   15.626   15.573   15.833   15.286   15.016   15.127   14.891   15.507   15.403   15.523   15.486   15.046   15.052   15.387   15.281   16.131   15.662   15.217   15.229   15.289   15.299   14.684   15.666   15.097   14.617   14.452   15.442   15.423   15.923   15.252   14.906   14.971   15.245   15.920   14.856   15.645   14.782   15.870   14.737   15.136   14.526   14.998   15.507   14.876   14.944   14.595   15.162   15.099   15.560   14.943   14.832   14.736   15.408   14.812   14.906   15.412   15.641   14.371   15.281   14.966   17.405   14.950   15.089   14.605   14.612   15.453   14.965   14.566   15.071   14.716   14.720   14.319   15.024   15.428   15.027   15.212   14.012   13.710   15.368   14.612   14.574   14.202   13.641   14.203   14.525   14.479   14.530   13.968   15.309   14.260   14.912   15.285   14.868   15.140   14.846   15.045   14.232   13.947   14.397   15.298   14.561   14.367   14.190   14.550   14.017   14.860   13.949   14.825   14.127   14.249   14.129   14.283   14.720   14.459   15.204   14.031   14.987   14.627   14.930   14.064   14.818   15.758   14.348   14.781   14.225   14.009   13.956   14.413   14.433   14.555   14.277   14.434   14.058   14.067   14.082   14.107   15.057   14.962   13.800   14.269   13.564   14.107   13.506   14.125   14.637   15.031   13.858   14.314   14.015   13.979   14.364   14.348   13.948   13.873   13.938   13.472   14.558   14.306   13.255   13.602   13.564   13.861   13.350   13.554   14.327   14.204   13.742 
DATE 2017:116:15:06:18 obsn 424 az 292 el 55 freq_MHz  1417.5000 Tsys 165.000 Tant 310.273 vlsr  -32.85 glat  5.869 glon 76.016 azoff 0.00 eloff 0.00 source CygnusA 
Fstart 1416.497 fstop 1418.503 spacing 0.009375 bw    2.400 fbw    2.000 MHz nfreq 256 nsam 5242880 npoint 214 integ   117 sigma    0.315 bsw 12
Spectrum    107 integration periods
  14.694   15.389   15.560   14.975   14.992   15.449   15.265   15.193   15.144   15.206   15.441   15.791   14.446   14.519   15.598   16.014   15.004   15.351   15.305   15.775   15.449   15.201   15.575   15.085   15.653   15.551   15.335   16.122   15.413   15.866   14.763   15.194   15.041   15.520   15.557   15.552   15.454   14.538   14.684   14.799   15.279   16.070   16.517   15.197   15.395   14.797   15.830   15.615   15.662   16.139   15.457   15.057   15.223   15.040   15.465   15.381   15.819   15.617   15.036   15.379   15.598   15.229   16.008   15.784   15.315   15.353   15.528   15.371   14.733   15.829   15.082   14.629   14.645   15.534   15.681   16.121   15.283   15.103   15.060   15.091   15.893   14.959   15.838   14.627   15.742   14.779   15.273   14.884   15.099   15.533   15.045   15.013   14.982   15.458   15.001   15.558   15.120   14.920   14.824   15.213   14.910   15.022   15.635   15.854   14.676   15.384   14.861   17.518   14.796   15.140   14.754   14.571   15.410   14.978   14.732   15.101   14.868   14.839   14.637   15.106   15.560   15.032   15.047   13.838   13.829   15.418   14.825   14.487   14.313   13.762   14.426   14.704   14.554   14.355   14.046   15.089   14.381   14.940   15.378   14.776   15.308   14.925   15.114   14.260   14.042   14.421   15.205   14.590   14.477   14.313   14.524   13.928   14.832   13.980   14.847   14.378   14.134   14.154   14.310   14.694   14.461   15.182   14.282   14.933   14.691   14.998   14.218   15.018   15.802   14.302   14.623   14.248   14.128   13.993   14.754   14.444   14.745   14.358   14.447   14.184   14.077   14.160   14.176   15.155   15.149   13.852   14.341   13.525   14.092   13.609   14.290   14.801   15.095   13.919   14.188   14.054   14.008   14.621   14.653   14.004   13.859   14.149   13.694   14.597   14.440   13.504   13.816   13.899   13.953   13.575   13.735   14.589   14.102   13.967 
DATE 2017:116:15:06:42 obsn 425 az 301 el 55 freq_MHz  1417.5000 Tsys 165.000 Tant 247.603 vlsr  -32.85 glat  5.869 glon 76.016 azoff 8.71 eloff 0.00 source CygnusA 
Fstart 1416.497 fstop 1418.503 spacing 0.009375 bw    2.400 fbw    2.000 MHz nfreq 256 nsam 5242880 npoint 214 integ   128 sigma    0.301 bsw 13
Spectrum    117 integration periods
  15.241   15.964   16.149   15.704   15.483   15.820   15.735   15.713   15.608   15.997   15.871   16.341   15.110   15.157   16.145   16.567   15.818   15.929   15.843   16.503   16.043   15.839   16.295   15.833   16.249   16.065   15.975   16.643   15.913   16.455   15.282   15.559   15.620   16.000   16.283   16.230   16.137   15.161   15.458   15.415   15.876   16.497   17.079   15.764   15.916   15.505   16.656   16.008   16.337   16.775   16.078   15.551   15.903   15.632   15.939   15.912   16.346   16.148   15.698   15.890   16.042   15.804   16.601   16.245   15.659   15.920   16.196   15.920   15.213   16.273   15.689   15.436   15.025   16.075   16.241   16.536   15.936   15.611   15.568   15.794   16.347   15.592   16.451   15.172   16.382   15.322   15.832   15.494   15.684   16.189   15.585   15.584   15.453   15.894   15.464   16.132   15.758   15.569   15.438   15.731   15.408   15.652   16.263   16.492   15.211   15.933   15.416   18.123   15.262   15.567   15.380   15.223   15.865   15.562   15.046   15.545   15.579   15.387   15.163   15.680   16.053   15.655   15.417   14.362   14.420   15.825   15.242   14.983   14.717   14.222   14.897   15.195   15.115   14.808   14.782   15.644   14.845   15.606   15.879   15.306   15.828   15.315   15.542   14.829   14.679   15.105   15.697   14.988   14.835   14.722   15.032   14.541   15.338   14.656   15.302   14.669   14.607   14.707   14.856   15.207   15.016   15.587   14.760   15.239   15.070   15.557   14.631   15.236   15.103   14.728   15.079   14.629   14.573   14.424   15.076   14.761   14.910   14.784   14.814   14.665   14.598   14.719   14.590   15.573   15.593   14.254   14.751   14.093   14.444   13.573   14.748   15.225   15.451   14.425   14.670   14.435   14.374   15.155   15.171   14.669   14.208   14.578   14.182   15.041   14.897   13.907   14.307   14.392   14.545   14.075   14.360   14.978   14.473   14.408 
DATE 2017:116:15:07:14 obsn 426 az 293 el 55 freq_MHz  1417.5000 Tsys 165.000 Tant 297.666 vlsr  -32.85 glat  5.869 glon 76.016 azoff 0.00 eloff 0.00 source CygnusA 
Fstart 1416.497 fstop 1418.503 spacing 0.009375 bw    2.400 fbw    2.000 MHz nfreq 256 nsam 5242880 npoint 214 integ   139 sigma    0.289 bsw 14
Spectrum    127 integration periods
  15.715   16.446   16.549   16.207   16.039   16.121   16.134   16.313   16.149   16.505   16.289   16.754   15.644   15.653   16.605   17.089   16.368   16.423   16.315   17.177   16.614   16.563   16.819   16.314   16.656   16.452   16.439   17.210   16.391   16.812   15.690   16.024   16.163   16.480   16.675   16.613   16.614   15.674   15.905   15.919   16.464   16.867   17.614   16.205   16.299   16.074   17.049   16.316   16.810   17.165   16.589   16.003   16.251   16.177   16.396   16.431   16.803   16.538   16.241   16.408   16.559   16.156   17.036   16.560   16.096   16.422   16.469   16.374   15.734   16.689   16.152   15.984   15.454   16.633   16.611   16.992   16.306   16.087   16.129   16.164   16.729   16.204   16.956   15.550   16.760   15.701   16.243   16.004   16.120   16.435   16.014   16.008   15.913   16.265   16.000   16.429   16.382   15.967   15.946   16.169   15.890   16.116   16.612   16.822   15.695   16.325   15.856   18.300   15.689   15.966   15.838   15.960   16.485   15.900   15.484   15.908   16.220   15.915   15.639   16.000   16.500   15.981   15.817   14.890   14.941   16.263   15.503   15.364   15.172   14.797   15.245   15.556   15.690   15.271   15.434   16.077   15.338   15.875   16.280   15.685   16.068   15.853   15.953   15.257   15.215   15.378   15.925   15.415   15.394   15.139   15.444   14.955   15.610   15.045   15.730   15.093   15.002   15.255   15.332   15.623   15.532   15.951   15.070   15.763   15.551   15.976   15.015   15.660   14.983   15.072   15.395   15.076   15.034   14.896   15.309   15.055   15.350   15.104   15.128   15.052   15.069   15.155   15.036   16.075   15.941   14.731   15.330   14.575   14.942   13.869   15.305   15.550   15.607   14.764   15.128   14.787   14.768   15.754   15.584   15.060   14.686   15.047   14.621   15.382   15.410   14.309   14.630   14.708   14.926   14.415   14.745   15.211   14.979   14.829 
DATE 2017:116:15:07:37 obsn 427 az 284 el 55 freq_MHz  1417.5000 Tsys 165.000 Tant 285.483 vlsr  -32.85 glat  5.869 glon 76.016 azoff -8.67 eloff 0.00 source CygnusA 
Fstart 1416.497 fstop 1418.503 spacing 0.009375 bw    2.400 fbw    2.000 MHz nfreq 256 nsam 5242880 npoint 214 integ   150 sigma    0.279 bsw 15
Spectrum    137 integration periods
  15.458   16.032   16.166   15.730   15.567   15.665   15.840   15.838   15.618   16.013   15.902   16.342   15.404   15.243   16.105   16.621   15.894   16.020   15.990   16.500   16.201   16.116   16.428   15.936   16.210   15.882   16.014   16.607   15.955   16.335   15.277   15.645   15.777   16.121   16.204   16.180   16.171   15.383   15.640   15.420   16.032   16.509   17.116   15.849   15.891   15.694   16.564   15.951   16.323   16.813   16.065   15.546   15.753   15.721   16.049   16.042   16.189   16.091   15.863   15.892   16.139   15.654   16.493   16.178   15.721   15.989   16.145   16.020   15.209   16.198   15.675   15.653   15.228   16.093   16.117   16.702   15.806   15.777   15.612   15.836   16.204   15.719   16.557   15.187   16.237   15.283   15.839   15.433   15.574   16.043   15.407   15.527   15.508   15.699   15.562   16.048   16.096   15.620   15.679   15.761   15.341   15.606   16.155   16.347   15.283   15.885   15.438   17.803   15.272   15.406   15.354   15.378   16.043   15.441   14.954   15.415   15.891   15.498   15.098   15.458   16.011   15.629   15.305   14.514   14.603   15.919   15.057   14.965   14.854   14.502   14.871   15.187   15.193   14.780   15.027   15.546   14.888   15.488   15.883   15.361   15.647   15.350   15.516   14.864   14.742   14.860   15.549   15.110   15.091   14.759   15.097   14.572   15.165   14.540   15.197   14.658   14.518   14.790   15.083   15.279   15.185   15.419   14.752   15.457   15.116   15.514   14.615   15.114   14.651   14.695   14.993   14.639   14.828   14.535   15.057   14.798   14.992   14.913   14.638   14.736   14.784   14.993   14.757   15.585   15.548   14.439   14.995   14.159   14.625   13.498   14.929   14.977   15.036   14.379   14.595   14.452   14.305   15.281   15.128   14.752   14.188   14.751   14.229   14.937   14.831   13.977   14.150   14.338   14.531   14.127   14.494   14.910   14.679   14.438 
DATE 2017:116:15:08:01 obsn 428 az 293 el 55 freq_MHz  1417.5000 Tsys 165.000 Tant 299.956 vlsr  -32.85 glat  5.869 glon 76.016 azoff 0.00 eloff 0.00 source CygnusA 
Fstart 1416.497 fstop 1418.503 spacing 0.009375 bw    2.400 fbw    2.000 MHz nfreq 256 nsam 5242880 npoint 214 integ   161 sigma    0.269 bsw 16
Spectrum    147 integration periods
  15.126   15.606   15.788   15.525   15.243   15.379   15.421   15.469   15.288   15.657   15.637   15.946   15.139   14.922   15.780   16.340   15.519   15.585   15.636   16.140   15.901   15.684   16.114   15.604   15.800   15.304   15.588   16.184   15.596   15.871   14.924   15.276   15.389   15.855   15.780   15.734   15.883   15.000   15.333   15.123   15.687   16.174   16.803   15.472   15.552   15.333   16.087   15.528   15.975   16.478   15.707   15.132   15.322   15.304   15.693   15.619   15.696   15.641   15.408   15.573   15.909   15.257   16.203   15.854   15.256   15.453   15.644   15.530   14.845   15.865   15.340   15.294   14.735   15.663   15.720   16.343   15.410   15.350   15.305   15.487   15.967   15.338   16.165   14.918   15.811   14.991   15.549   15.018   15.217   15.529   15.106   15.203   15.094   15.168   15.149   15.579   15.710   15.262   15.465   15.202   15.013   15.253   15.801   15.799   15.060   15.586   15.126   17.328   14.940   14.997   15.040   14.973   15.714   15.038   14.730   15.032   15.501   15.130   14.686   15.182   15.726   15.208   15.021   14.211   14.297   15.573   14.654   14.632   14.367   14.122   14.553   14.847   14.744   14.402   14.644   14.961   14.392   15.001   15.389   14.855   15.184   14.860   15.373   14.606   14.211   14.518   15.156   14.799   14.644   14.307   14.627   14.190   14.774   14.259   14.796   14.344   14.257   14.338   14.596   14.772   14.793   14.977   14.226   15.070   14.740   15.052   14.316   14.678   14.463   14.293   14.531   14.320   14.438   14.089   14.657   14.391   14.630   14.497   14.230   14.314   14.496   14.685   14.327   15.115   15.047   14.054   14.565   13.741   14.413   13.258   14.615   14.362   14.664   13.986   14.286   14.215   13.920   14.823   14.747   14.356   13.829   14.279   13.898   14.551   14.405   13.574   13.797   14.042   14.195   13.803   14.063   14.429   14.232   14.091 
DATE 2017:116:15:08:25 obsn 429 az 301 el 55 freq_MHz  1417.5000 Tsys 165.000 Tant 254.637 vlsr  -32.85 glat  5.869 glon 76.016 azoff 8.63 eloff 0.00 source CygnusA 
Fstart 1416.497 fstop 1418.503 spacing 0.009375 bw    2.400 fbw    2.000 MHz nfreq 256 nsam 5242880 npoint 214 integ   171 sigma    0.260 bsw 17
Spectrum    157 integration periods
  15.637   16.151   16.261   16.033   15.850   15.952   15.866   15.889   15.791   16.200   16.193   16.342   15.586   15.654   16.343   16.729   16.012   15.964   16.262   16.719   16.425   16.040   16.657   15.972   16.216   15.830   16.228   16.637   15.977   16.195   15.467   15.797   15.806   16.324   16.314   16.274   16.181   15.710   15.813   15.632   16.243   16.595   17.333   16.080   16.191   15.654   16.543   16.211   16.398   16.868   16.169   15.658   15.939   15.818   16.102   16.168   16.181   16.147   15.913   15.826   16.403   15.804   16.775   16.267   15.655   15.926   16.055   15.940   15.437   16.404   15.789   15.698   15.376   16.194   16.201   16.902   15.989   15.818   15.737   16.102   16.357   15.736   16.729   15.408   16.224   15.366   16.060   15.519   15.664   16.096   15.576   15.762   15.605   15.748   15.615   16.011   16.151   15.770   16.167   15.618   15.511   15.748   16.273   16.170   15.586   16.093   15.511   17.792   15.439   15.378   15.596   15.427   16.159   15.500   15.306   15.523   15.915   15.590   15.180   15.772   16.191   15.662   15.604   14.702   14.750   16.127   15.187   15.193   14.933   14.684   15.049   15.303   15.126   14.932   15.157   15.306   14.928   15.506   15.886   15.432   15.600   15.220   15.936   14.992   14.774   14.938   15.630   15.197   15.135   14.781   15.082   14.640   15.045   14.864   15.237   14.802   14.668   14.960   15.049   15.279   15.294   15.433   14.650   15.585   15.118   15.524   14.684   15.024   14.540   14.845   15.135   15.024   14.976   14.495   15.161   14.914   15.105   15.123   14.567   14.683   14.912   15.115   14.737   15.490   15.415   14.499   15.129   14.275   14.919   13.679   15.064   14.821   15.156   14.510   14.743   14.571   14.409   15.220   15.269   14.840   14.341   14.673   14.476   14.985   14.865   14.120   14.305   14.479   14.707   14.209   14.547   14.824   14.676   14.643 
DATE 2017:116:15:08:57 obsn 430 az 293 el 54 freq_MHz  1417.5000 Tsys 165.000 Tant 299.563 vlsr  -32.85 glat  5.869 glon 76.016 azoff 0.00 eloff 0.00 source CygnusA 
Fstart 1416.497 fstop 1418.503 spacing 0.009375 bw    2.400 fbw    2.000 MHz nfreq 256 nsam 5242880 npoint 214 integ   182 sigma    0.252 bsw 18
Spectrum    167 integration periods
  15.741   16.137   16.266   16.036   15.920   16.006   15.916   15.958   15.816   16.116   16.186   16.403   15.567   15.678   16.384   16.743   16.107   15.931   16.309   16.730   16.408   15.935   16.656   16.012   16.097   15.757   16.278   16.526   15.930   16.131   15.485   15.902   15.788   16.409   16.313   16.375   16.225   15.816   15.840   15.681   16.406   16.615   17.305   16.180   16.132   15.681   16.423   16.127   16.531   16.814   16.160   15.704   15.976   15.815   15.946   16.235   16.062   16.267   15.912   15.826   16.371   15.814   16.675   16.260   15.740   15.915   15.992   15.907   15.519   16.360   15.726   15.676   15.506   16.128   16.161   16.851   15.901   15.874   15.756   15.980   16.293   15.753   16.628   15.276   16.179   15.361   16.010   15.519   15.725   16.184   15.759   15.612   15.642   15.661   15.566   16.012   16.144   15.767   16.031   15.669   15.477   15.711   16.193   16.059   15.492   16.038   15.641   17.758   15.519   15.320   15.632   15.392   16.063   15.555   15.360   15.481   16.055   15.503   15.150   15.695   16.082   15.666   15.507   14.779   14.802   16.116   15.149   15.236   14.928   14.651   15.079   15.326   15.035   14.999   15.182   15.377   14.895   15.485   15.861   15.420   15.644   15.160   15.869   15.083   14.874   15.071   15.577   15.168   15.158   14.866   15.119   14.667   15.021   14.846   15.276   14.772   14.618   14.927   15.082   15.244   15.336   15.520   14.576   15.590   14.988   15.387   14.826   14.999   14.166   14.796   15.104   14.944   14.935   14.585   15.096   14.900   15.100   15.150   14.490   14.638   14.859   15.150   14.794   15.451   15.365   14.561   15.146   14.334   14.896   13.801   15.081   14.657   15.215   14.540   14.830   14.589   14.444   15.128   15.110   14.786   14.349   14.788   14.426   14.937   14.889   14.130   14.501   14.524   14.661   14.080   14.473   14.748   14.683   14.690 
DATE 2017:116:15:09:21 obsn 431 az 284 el 54 freq_MHz  1417.5000 Tsys 165.000 Tant 309.902 vlsr  -32.85 glat  5.869 glon 76.016 azoff -8.59 eloff 0.00 source CygnusA 
Fstart 1416.497 fstop 1418.503 spacing 0.009375 bw    2.400 fbw    2.000 MHz nfreq 256 nsam 5242880 npoint 214 integ   193 sigma    0.245 bsw 19
Spectrum    177 integration periods
 452.911  449.892  448.732  446.964  447.603  447.754  448.950  448.413  448.922  448.772  447.804  448.276  447.993  448.708  447.544  448.888  447.303  448.082  447.525  448.783  448.562  448.544  448.996  448.217  447.947  448.560  449.205  448.901  448.986  450.201  449.653  448.646  448.575  448.496  448.571  449.947  449.061  448.803  449.036  448.706  448.376  447.571  448.995  448.678  447.931  448.468  448.083  447.892  447.511  449.692  447.820  447.455  447.288  448.004  447.754  450.096  447.766  447.615  447.501  448.477  448.115  448.804  449.913  447.646  447.933  448.170  447.961  448.598  448.363  449.458  448.582  447.989  448.050  447.711  447.990  450.328  448.376  448.033  447.856  448.181  448.419  448.876  449.855  449.687  448.167  448.531  447.870  448.324  447.725  449.247  447.826  447.892  449.141  447.857  448.247  449.478  447.183  447.361  448.081  448.160  447.487  447.195  449.428  447.868  447.737  448.248  449.248  452.519  447.994  448.776  447.414  447.894  448.788  447.614  447.382  448.767  448.331  447.710  448.108  449.355  448.435  448.510  447.917  448.668  449.731  449.554  448.845  448.443  448.726  450.341  449.561  448.768  448.677  449.319  449.100  449.056  450.061  449.730  449.419  449.970  449.194  449.043  449.164  449.016  449.213  449.009  449.173  450.052  449.742  449.771  448.532  449.053  449.315  449.145  448.455  449.202  449.075  449.547  449.989  449.801  449.024  449.438  450.386  449.334  449.757  449.195  449.164  449.898  452.473  449.412  448.851  450.089  449.182  448.893  450.034  450.576  449.753  449.949  449.314  449.705  449.478  450.331  450.547  450.240  449.929  450.199  449.925  450.851  450.734  450.386  449.450  449.540  450.183  449.553  449.215  450.269  450.091  449.097  449.697  449.832  450.640  450.251  450.088  451.145  451.007  451.785  451.085  450.482  450.711  451.153  449.805  448.781  449.437  448.924 
DATE 2017:116:15:09:35 obsn 432 az 284 el 54 freq_MHz  1417.5000 Tsys 165.000 Tant 273.332 vlsr  -32.85 glat  5.869 glon 76.016 azoff -8.59 eloff 0.00 source CygnusA 
Fstart 1416.497 fstop 1418.503 spacing 0.009375 bw    2.400 fbw    2.000 MHz nfreq 256 nsam 5242880 npoint 214 integ   204 sigma    0.238 bsw 19
Spectrum    187 integration periods
  15.612   16.141   16.146   15.954   15.747   15.996   15.872   16.059   15.681   15.997   16.117   16.394   15.661   15.593   16.360   16.686   15.923   15.982   16.240   16.529   16.137   15.910   16.539   15.913   15.991   15.857   16.339   16.409   15.852   16.083   15.541   15.831   15.795   16.331   16.047   16.417   16.125   15.770   15.671   15.545   16.336   16.452   17.198   16.080   16.015   15.552   16.357   16.049   16.424   16.638   15.949   15.673   15.967   15.875   15.965   16.058   15.956   16.009   15.807   15.814   16.222   15.879   16.606   16.146   15.523   15.738   15.835   15.868   15.424   16.248   15.573   15.575   15.290   16.180   15.947   16.679   15.846   15.847   15.683   15.844   16.229   15.620   16.456   15.248   15.996   15.311   15.778   15.451   15.736   16.053   15.741   15.618   15.562   15.631   15.435   15.921   15.937   15.657   15.787   15.438   15.304   15.461   16.069   15.841   15.601   15.944   15.455   17.371   15.365   15.265   15.377   15.269   15.855   15.263   15.255   15.276   15.810   15.247   15.029   15.348   15.899   15.434   15.206   14.591   14.640   15.750   14.926   15.180   14.944   14.534   14.875   15.156   14.779   14.715   15.032   15.274   14.547   15.195   15.577   15.076   15.346   14.949   15.820   14.920   14.619   15.050   15.315   14.936   14.772   14.527   14.756   14.526   14.942   14.685   15.143   14.445   14.348   14.656   14.910   14.816   15.160   15.070   14.383   15.542   14.780   15.054   14.592   14.810   14.297   14.533   14.732   14.617   14.737   14.218   14.824   14.859   14.869   14.900   14.303   14.463   14.697   14.937   14.719   15.236   14.921   14.282   14.945   14.172   14.725   13.707   14.790   14.437   14.942   14.369   14.550   14.290   14.145   14.726   14.988   14.610   14.229   14.670   14.208   14.642   14.461   13.943   14.181   14.280   14.456   13.739   14.337   14.456   14.386   14.347 
DATE 2017:116:15:09:58 obsn 433 az 293 el 54 freq_MHz  1417.5000 Tsys 165.000 Tant 292.183 vlsr  -32.85 glat  5.869 glon 76.016 azoff 0.00 eloff 0.00 source CygnusA 
Fstart 1416.497 fstop 1418.503 spacing 0.009375 bw    2.400 fbw    2.000 MHz nfreq 256 nsam 5242880 npoint 214 integ   215 sigma    0.232 bsw 20
Spectrum    197 integration periods
  15.334   15.773   15.637   15.510   15.319   15.634   15.545   15.709   15.330   15.609   15.766   15.999   15.174   15.238   16.015   16.143   15.525   15.634   15.880   16.068   15.684   15.505   16.164   15.553   15.590   15.481   15.889   15.999   15.500   15.796   15.289   15.422   15.486   15.943   15.631   16.057   15.728   15.306   15.392   15.168   15.898   15.950   16.699   15.746   15.689   15.211   16.046   15.721   16.085   16.280   15.666   15.350   15.643   15.474   15.596   15.643   15.611   15.742   15.364   15.515   15.851   15.538   16.199   15.731   15.104   15.297   15.581   15.520   15.113   15.955   15.208   15.282   14.911   15.833   15.716   16.250   15.512   15.546   15.385   15.494   15.899   15.157   16.066   14.806   15.603   15.039   15.455   15.058   15.324   15.632   15.361   15.243   15.137   15.300   15.016   15.579   15.561   15.272   15.370   15.160   15.005   15.104   15.774   15.470   15.247   15.540   15.074   16.869   14.963   14.909   15.006   15.012   15.393   14.967   14.949   14.758   15.368   14.835   14.775   14.930   15.529   15.042   14.922   14.240   14.153   15.418   14.655   14.763   14.613   14.108   14.513   14.818   14.486   14.321   14.644   14.997   14.180   14.831   15.325   14.680   15.008   14.622   15.542   14.519   14.321   14.690   14.949   14.553   14.389   14.269   14.432   14.210   14.523   14.348   14.712   14.074   13.957   14.365   14.517   14.497   14.861   14.680   13.962   15.160   14.464   14.705   14.273   14.401   13.830   14.191   14.366   14.164   14.450   13.934   14.466   14.554   14.431   14.556   14.083   14.122   14.265   14.516   14.439   14.852   14.587   14.012   14.546   13.910   14.286   13.500   14.404   14.132   14.583   14.023   14.250   13.941   13.806   14.282   14.580   14.133   13.922   14.312   13.870   14.224   14.074   13.620   13.929   14.017   14.071   13.407   13.988   14.055   13.863   14.104 
DATE 2017:116:15:10:22 obsn 434 az 301 el 54 freq_MHz  1417.5000 Tsys 165.000 Tant 255.108 vlsr  -32.85 glat  5.869 glon 76.016 azoff 8.56 eloff 0.00 source CygnusA 
Fstart 1416.497 fstop 1418.503 spacing 0.009375 bw    2.400 fbw    2.000 MHz nfreq 256 nsam 5242880 npoint 214 integ   226 sigma    0.227 bsw 21
Spectrum    207 integration periods
  15.573   16.022   15.944   15.865   15.624   15.962   15.904   16.033   15.652   15.951   16.075   16.251   15.448   15.513   16.243   16.497   15.860   15.950   16.155   16.412   15.938   15.776   16.447   15.797   15.869   15.794   16.144   16.282   15.692   16.056   15.590   15.716   15.777   16.201   15.952   16.246   15.956   15.583   15.723   15.462   16.305   16.190   16.896   16.018   15.992   15.562   16.420   16.012   16.411   16.525   15.906   15.593   15.966   15.665   15.750   16.013   15.960   15.978   15.605   15.841   16.159   15.793   16.485   15.956   15.439   15.565   15.863   15.728   15.228   16.196   15.481   15.517   15.174   16.052   15.906   16.512   15.808   15.746   15.671   15.805   16.124   15.410   16.326   15.182   15.829   15.323   15.578   15.215   15.555   15.942   15.706   15.394   15.385   15.599   15.215   15.856   15.752   15.544   15.664   15.418   15.199   15.337   15.998   15.761   15.534   15.784   15.322   17.109   15.241   15.194   15.242   15.336   15.716   15.253   15.146   14.992   15.530   14.976   15.046   15.257   15.786   15.291   15.131   14.555   14.453   15.588   14.907   15.053   14.948   14.315   14.745   15.049   14.739   14.678   15.057   15.282   14.499   15.031   15.493   14.908   15.273   14.895   15.776   14.698   14.646   14.865   15.225   14.908   14.694   14.617   14.773   14.529   14.722   14.623   14.927   14.383   14.322   14.677   14.806   14.725   15.040   14.964   14.220   15.410   14.812   14.974   14.403   14.657   14.239   14.517   14.546   14.465   14.716   14.152   14.712   14.809   14.771   14.823   14.313   14.472   14.509   14.815   14.642   15.090   14.721   14.320   14.900   14.154   14.587   13.794   14.614   14.391   14.881   14.275   14.520   14.330   14.156   14.540   14.802   14.295   14.175   14.542   14.131   14.490   14.333   13.962   14.209   14.202   14.331   13.757   14.257   14.301   14.128   14.355 
DATE 2017:116:15:10:46 obsn 435 az 293 el 54 freq_MHz  1417.5000 Tsys 165.000 Tant 304.595 vlsr  -32.85 glat  5.869 glon 76.016 azoff 0.00 eloff 0.00 source CygnusA 
Fstart 1416.497 fstop 1418.503 spacing 0.009375 bw    2.400 fbw    2.000 MHz nfreq 256 nsam 5242880 npoint 214 integ   237 sigma    0.221 bsw 22
Spectrum    217 integration periods
  15.975   16.538   16.384   16.277   16.139   16.424   16.355   16.579   16.159   16.463   16.527   16.805   15.968   15.933   16.687   16.921   16.322   16.419   16.619   16.908   16.410   16.282   16.955   16.308   16.310   16.315   16.701   16.732   16.149   16.497   16.124   16.186   16.196   16.628   16.489   16.727   16.507   16.057   16.159   16.020   16.748   16.666   17.339   16.440   16.454   16.071   16.826   16.530   16.822   16.989   16.469   15.938   16.427   16.200   16.193   16.423   16.405   16.307   16.062   16.412   16.566   16.274   17.029   16.412   15.908   16.033   16.264   16.200   15.797   16.646   15.950   15.960   15.592   16.581   16.390   17.039   16.221   16.163   16.161   16.323   16.620   15.914   16.748   15.581   16.270   15.802   15.997   15.673   16.066   16.318   16.230   15.853   15.777   15.962   15.667   16.320   16.093   15.978   16.077   15.871   15.686   15.805   16.436   16.205   15.977   16.201   15.763   17.476   15.620   15.631   15.733   15.770   16.130   15.647   15.625   15.515   15.897   15.402   15.531   15.783   16.194   15.786   15.664   15.137   14.883   16.073   15.372   15.534   15.384   14.754   15.336   15.450   15.142   15.148   15.469   15.667   14.952   15.502   15.925   15.367   15.736   15.347   16.202   15.137   15.084   15.434   15.774   15.424   15.118   14.980   15.359   15.086   15.142   15.118   15.436   14.846   14.721   15.034   15.298   15.221   15.526   15.381   14.815   15.837   15.246   15.440   14.948   15.106   14.728   15.019   15.081   14.887   15.180   14.527   15.161   15.257   15.205   15.335   14.774   14.940   15.010   15.199   15.079   15.487   15.137   14.672   15.294   14.597   15.042   14.185   15.069   14.913   15.330   14.788   15.022   14.790   14.548   15.020   15.264   14.761   14.646   15.048   14.499   15.093   14.809   14.407   14.660   14.624   14.785   14.178   14.583   14.730   14.530   14.784 
DATE 2017:116:15:11:10 obsn 436 az 284 el 54 freq_MHz  1417.5000 Tsys 165.000 Tant 267.494 vlsr  -32.85 glat  5.869 glon 76.016 azoff -8.53 eloff 0.00 source CygnusA 
Fstart 1416.497 fstop 1418.503 spacing 0.009375 bw    2.400 fbw    2.000 MHz nfreq 256 nsam 5242880 npoint 214 integ   248 sigma    0.216 bsw 23
Spectrum    227 integration periods
  15.905   16.426   16.227   16.164   16.078   16.241   16.277   16.413   15.972   16.336   16.339   16.681   15.844   15.828   16.521   16.863   16.233   16.199   16.350   16.806   16.357   16.197   16.836   16.241   16.186   16.284   16.518   16.556   16.089   16.388   16.009   16.086   16.065   16.462   16.329   16.618   16.349   15.970   16.160   15.897   16.647   16.544   17.206   16.306   16.328   15.950   16.640   16.391   16.777   16.894   16.393   15.879   16.326   16.120   16.193   16.358   16.222   16.181   15.941   16.276   16.445   16.135   16.843   16.249   15.806   15.845   16.073   16.062   15.651   16.445   15.824   15.884   15.490   16.377   16.271   16.986   16.170   15.974   16.037   16.183   16.475   15.792   16.656   15.498   16.127   15.652   15.961   15.523   15.925   16.218   16.050   15.696   15.670   15.839   15.497   16.268   15.862   15.746   15.891   15.743   15.564   15.542   16.261   16.069   15.853   16.104   15.652   17.299   15.569   15.470   15.511   15.564   16.028   15.470   15.437   15.370   15.756   15.313   15.440   15.644   16.050   15.673   15.488   14.978   14.725   15.876   15.100   15.325   15.130   14.762   15.184   15.285   15.026   14.974   15.278   15.491   14.769   15.321   15.714   15.147   15.478   15.172   16.062   14.986   14.966   15.247   15.551   15.245   14.877   14.844   15.185   14.884   15.000   14.908   15.257   14.731   14.645   14.901   15.181   15.020   15.337   15.162   14.729   15.539   15.058   15.165   14.731   14.894   14.528   14.820   14.861   14.622   14.907   14.370   14.942   15.141   15.066   15.099   14.610   14.737   14.897   15.009   14.926   15.302   14.931   14.469   15.055   14.454   14.879   14.038   14.800   14.775   15.129   14.635   14.868   14.613   14.312   14.839   15.023   14.504   14.469   14.778   14.293   14.911   14.634   14.236   14.456   14.426   14.593   14.024   14.435   14.578   14.370   14.532 
DATE 2017:116:15:11:34 obsn 437 az 293 el 54 freq_MHz  1417.5000 Tsys 165.000 Tant 297.470 vlsr  -32.85 glat  5.869 glon 76.016 azoff 0.00 eloff 0.00 source CygnusA 
Fstart 1416.497 fstop 1418.503 spacing 0.009375 bw    2.400 fbw    2.000 MHz nfreq 256 nsam 5242880 npoint 214 integ   259 sigma    0.212 bsw 24
Spectrum    237 integration periods
  15.752   16.165   16.157   16.033   15.939   16.036   16.164   16.261   15.898   16.159   16.213   16.522   15.751   15.679   16.241   16.675   16.082   16.004   16.158   16.613   16.184   15.952   16.671   16.059   16.089   16.154   16.303   16.351   15.970   16.233   15.910   15.884   16.040   16.278   16.184   16.468   16.141   15.799   16.018   15.719   16.492   16.348   17.039   16.175   16.130   15.796   16.480   16.249   16.542   16.664   16.198   15.723   16.157   15.861   16.078   16.253   16.017   16.000   15.708   16.170   16.425   16.030   16.699   16.162   15.648   15.711   15.859   15.876   15.510   16.200   15.630   15.716   15.329   16.123   16.092   16.898   15.940   15.851   15.798   15.981   16.204   15.655   16.555   15.459   15.948   15.486   15.732   15.330   15.700   16.110   15.936   15.490   15.476   15.602   15.306   16.118   15.715   15.606   15.657   15.601   15.465   15.371   16.037   15.883   15.685   15.942   15.427   17.196   15.412   15.293   15.448   15.326   15.840   15.246   15.177   15.245   15.514   15.004   15.245   15.481   15.851   15.510   15.275   14.817   14.508   15.683   14.954   15.124   14.941   14.533   15.005   15.100   14.757   14.800   15.154   15.301   14.637   15.078   15.516   14.963   15.263   14.902   15.835   14.910   14.750   15.109   15.407   15.106   14.653   14.708   14.996   14.665   14.748   14.744   15.054   14.576   14.498   14.734   15.059   14.930   15.080   14.996   14.506   15.284   14.859   14.854   14.485   14.704   14.378   14.575   14.597   14.423   14.625   14.143   14.751   14.896   14.828   14.880   14.448   14.487   14.698   14.774   14.730   15.075   14.622   14.206   14.763   14.231   14.648   13.890   14.592   14.519   14.882   14.372   14.666   14.379   14.083   14.628   14.830   14.375   14.293   14.568   14.002   14.671   14.419   14.010   14.230   14.223   14.301   13.816   14.177   14.318   14.055   14.334 
DATE 2017:116:15:11:58 obsn 438 az 301 el 54 freq_MHz  1417.5000 Tsys 165.000 Tant 259.632 vlsr  -32.85 glat  5.869 glon 76.016 azoff 8.50 eloff 0.00 source CygnusA 
Fstart 1416.497 fstop 1418.503 spacing 0.009375 bw    2.400 fbw    2.000 MHz nfreq 256 nsam 5242880 npoint 214 integ   270 sigma    0.207 bsw 25
Spectrum    247 integration periods
  15.820   16.152   16.258   16.035   16.002   16.179   16.190   16.337   16.025   16.315   16.267   16.524   15.764   15.726   16.274   16.731   16.200   16.124   16.194   16.693   16.252   16.031   16.776   16.236   16.185   16.277   16.454   16.391   16.020   16.225   15.939   15.921   16.094   16.420   16.314   16.570   16.208   15.888   16.033   15.770   16.542   16.398   16.954   16.244   16.290   15.843   16.578   16.430   16.593   16.565   16.311   15.819   16.145   15.969   16.097   16.301   16.017   16.006   15.775   16.269   16.548   16.057   16.808   16.181   15.789   15.785   15.985   15.922   15.608   16.338   15.761   15.745   15.445   16.144   16.154   16.984   15.943   15.869   15.889   15.963   16.281   15.729   16.548   15.574   15.960   15.531   15.830   15.381   15.734   16.180   16.019   15.498   15.546   15.669   15.356   16.117   15.822   15.636   15.701   15.666   15.501   15.372   16.090   15.884   15.787   15.970   15.480   17.228   15.435   15.306   15.502   15.426   15.922   15.326   15.359   15.360   15.573   15.148   15.347   15.587   15.861   15.506   15.236   14.904   14.581   15.692   14.960   15.166   15.012   14.675   15.032   15.148   14.776   14.880   15.249   15.342   14.627   15.170   15.607   15.060   15.291   14.935   15.780   14.922   14.752   15.065   15.395   15.113   14.667   14.784   14.966   14.726   14.817   14.887   15.140   14.521   14.537   14.755   15.107   14.977   15.118   15.049   14.549   15.268   14.944   14.899   14.498   14.667   14.210   14.629   14.669   14.413   14.579   14.164   14.838   14.919   14.888   14.924   14.504   14.590   14.736   14.760   14.700   15.107   14.648   14.285   14.784   14.268   14.653   13.949   14.692   14.556   14.857   14.419   14.748   14.374   14.166   14.699   14.792   14.386   14.325   14.548   14.080   14.700   14.450   14.115   14.347   14.246   14.304   13.870   14.241   14.376   14.195   14.388 
DATE 2017:116:15:12:22 obsn 439 az 293 el 54 freq_MHz  1417.5000 Tsys 165.000 Tant 295.018 vlsr  -32.85 glat  5.869 glon 76.016 azoff 0.00 eloff 0.00 source CygnusA 
Fstart 1416.497 fstop 1418.503 spacing 0.009375 bw    2.400 fbw    2.000 MHz nfreq 256 nsam 5242880 npoint 214 integ   281 sigma    0.203 bsw 26
Spectrum    257 integration periods
  15.900   16.142   16.332   16.146   16.028   16.186   16.205   16.425   16.119   16.393   16.317   16.558   15.809   15.802   16.394   16.814   16.318   16.181   16.236   16.757   16.271   16.145   16.868   16.285   16.223   16.335   16.519   16.485   16.142   16.290   15.975   15.980   16.104   16.481   16.372   16.597   16.264   15.880   16.110   15.806   16.601   16.457   16.943   16.281   16.266   15.910   16.657   16.492   16.663   16.684   16.336   15.830   16.170   16.030   16.075   16.208   16.067   15.992   15.842   16.348   16.602   15.992   16.873   16.230   15.881   15.756   15.962   15.987   15.627   16.361   15.743   15.793   15.457   16.197   16.160   16.956   15.936   15.906   15.841   15.947   16.305   15.743   16.584   15.609   15.991   15.604   15.858   15.470   15.749   16.215   16.093   15.524   15.654   15.702   15.382   16.144   15.809   15.615   15.713   15.733   15.597   15.460   16.153   15.912   15.900   15.989   15.533   17.211   15.510   15.295   15.508   15.472   15.966   15.384   15.332   15.441   15.587   15.248   15.353   15.550   15.732   15.591   15.297   14.896   14.695   15.691   14.940   15.218   15.130   14.765   15.129   15.170   14.910   14.926   15.238   15.362   14.665   15.245   15.588   15.152   15.326   14.964   15.780   14.984   14.765   15.081   15.380   15.065   14.707   14.780   15.040   14.860   14.929   14.934   15.169   14.557   14.544   14.798   15.116   15.118   15.161   15.055   14.627   15.319   14.995   14.937   14.596   14.718   13.723   14.590   14.657   14.480   14.611   14.133   14.903   15.008   14.883   14.945   14.553   14.551   14.778   14.785   14.806   15.122   14.640   14.323   14.796   14.310   14.778   13.961   14.677   14.573   14.851   14.460   14.819   14.345   14.190   14.732   14.831   14.472   14.396   14.619   14.139   14.720   14.550   14.152   14.388   14.267   14.400   13.834   14.305   14.424   14.288   14.330 
DATE 2017:116:15:12:46 obsn 440 az 284 el 54 freq_MHz  1417.5000 Tsys 165.000 Tant 270.981 vlsr  -32.85 glat  5.869 glon 76.016 azoff -8.46 eloff 0.00 source CygnusA 
Fstart 1416.497 fstop 1418.503 spacing 0.009375 bw    2.400 fbw    2.000 MHz nfreq 256 nsam 5242880 npoint 214 integ   292 sigma    0.200 bsw 27
Spectrum    267 integration periods
  15.718   15.932   16.226   16.023   15.833   16.057   16.025   16.336   15.970   16.123   16.154   16.329   15.612   15.628   16.184   16.632   16.147   16.071   16.062   16.501   16.098   15.934   16.742   16.112   16.073   16.249   16.394   16.327   15.955   16.174   15.781   15.760   15.872   16.322   16.231   16.447   16.051   15.603   15.915   15.605   16.340   16.293   16.803   16.071   16.176   15.821   16.426   16.275   16.446   16.583   16.173   15.688   15.984   15.861   15.845   15.992   15.953   15.755   15.657   16.085   16.329   15.834   16.680   16.008   15.736   15.607   15.759   15.834   15.452   16.228   15.542   15.536   15.306   16.017   15.944   16.737   15.677   15.703   15.607   15.717   16.140   15.542   16.410   15.375   15.812   15.395   15.688   15.292   15.477   15.997   15.759   15.244   15.407   15.528   15.207   15.895   15.602   15.440   15.467   15.538   15.399   15.264   15.938   15.674   15.730   15.740   15.375   16.908   15.258   15.090   15.242   15.236   15.759   15.197   15.120   15.238   15.358   15.039   15.117   15.306   15.505   15.452   15.075   14.668   14.493   15.450   14.725   15.003   14.918   14.590   14.900   14.912   14.664   14.710   15.026   15.124   14.375   15.100   15.271   14.957   15.082   14.675   15.469   14.784   14.547   14.860   15.076   14.808   14.559   14.654   14.920   14.623   14.749   14.746   15.025   14.439   14.313   14.570   14.923   14.941   14.853   14.836   14.409   15.036   14.831   14.772   14.328   14.516   13.480   14.358   14.480   14.254   14.418   13.987   14.662   14.832   14.687   14.662   14.344   14.317   14.558   14.509   14.690   14.899   14.360   14.046   14.579   14.062   14.569   13.743   14.433   14.312   14.641   14.260   14.604   14.151   13.932   14.508   14.605   14.251   14.174   14.377   13.886   14.555   14.299   13.936   14.176   14.037   14.262   13.578   14.090   14.170   13.995   14.009 
DATE 2017:116:15:13:12 obsn 441 az 293 el 54 freq_MHz  1417.5000 Tsys 165.000 Tant 293.676 vlsr  -32.85 glat  5.869 glon 76.016 azoff 0.00 eloff 0.00 source CygnusA 
Fstart 1416.497 fstop 1418.503 spacing 0.009375 bw    2.400 fbw    2.000 MHz nfreq 256 nsam 5242880 npoint 214 integ   303 sigma    0.196 bsw 28
Spectrum    277 integration periods
  15.381   15.626   15.835   15.732   15.559   15.717   15.751   16.008   15.624   15.867   15.800   15.957   15.272   15.330   15.878   16.246   15.795   15.703   15.711   16.187   15.804   15.610   16.380   15.655   15.704   15.890   16.090   16.050   15.686   15.914   15.518   15.421   15.602   15.960   15.827   16.091   15.700   15.315   15.578   15.309   15.973   15.945   16.466   15.734   15.864   15.569   16.057   15.920   15.996   16.298   15.844   15.412   15.684   15.581   15.525   15.684   15.689   15.437   15.303   15.827   16.021   15.477   16.335   15.695   15.487   15.295   15.494   15.565   15.192   15.974   15.232   15.197   14.947   15.731   15.616   16.385   15.337   15.397   15.299   15.356   15.804   15.153   16.133   15.146   15.508   15.195   15.293   15.028   15.127   15.695   15.453   14.892   15.180   15.186   14.870   15.584   15.233   15.126   15.255   15.139   15.074   14.961   15.620   15.380   15.365   15.338   14.993   16.513   14.967   14.733   14.919   14.972   15.435   14.835   14.834   14.968   15.042   14.638   14.714   15.014   15.116   15.173   14.832   14.381   14.142   15.141   14.384   14.652   14.608   14.318   14.517   14.569   14.379   14.408   14.724   14.796   14.001   14.790   14.941   14.592   14.789   14.340   15.158   14.456   14.212   14.455   14.681   14.490   14.253   14.304   14.598   14.329   14.438   14.385   14.709   14.052   13.982   14.228   14.613   14.611   14.486   14.498   14.135   14.693   14.540   14.441   14.077   14.142   13.293   14.091   14.194   13.904   14.089   13.630   14.338   14.483   14.391   14.365   13.920   13.978   14.217   14.208   14.407   14.556   14.015   13.736   14.186   13.722   14.224   13.434   14.131   13.926   14.273   13.910   14.187   13.775   13.667   14.186   14.225   13.943   13.828   14.046   13.609   14.170   13.995   13.629   13.831   13.652   13.982   13.244   13.674   13.759   13.739   13.646 
DATE 2017:116:15:13:42 obsn 442 az 301 el 54 freq_MHz  1417.5000 Tsys 165.000 Tant 300.687 vlsr  -32.85 glat  5.869 glon 76.016 azoff 8.43 eloff 0.00 source CygnusA 
Fstart 1416.497 fstop 1418.503 spacing 0.009375 bw    2.400 fbw    2.000 MHz nfreq 256 nsam 5242880 npoint 214 integ   313 sigma    0.192 bsw 29
Spectrum    287 integration periods
 452.929  449.861  448.445  447.072  447.593  447.634  448.975  448.472  448.936  448.838  448.193  448.275  448.039  448.837  447.411  448.737  447.486  448.228  447.831  448.484  448.380  448.755  449.338  448.537  448.238  448.470  449.125  448.674  448.924  450.454  449.675  448.593  448.774  448.483  448.568  449.923  449.248  448.918  448.957  448.487  448.144  447.814  449.408  448.725  448.281  448.520  447.787  447.911  447.877  449.733  448.214  447.541  447.466  448.139  447.989  449.889  447.784  447.859  447.424  448.511  448.191  448.532  449.896  448.054  448.068  448.236  448.513  448.623  448.722  449.805  448.681  448.121  448.255  447.878  448.388  450.077  448.487  448.093  448.007  448.550  448.643  448.931  449.926  449.251  448.497  448.697  448.455  448.523  447.811  449.599  447.890  447.817  448.996  448.184  448.606  449.336  447.615  447.816  447.908  448.412  448.103  447.598  449.508  447.977  447.668  448.171  449.443  451.882  447.790  449.087  447.710  447.995  448.878  448.081  447.416  448.991  448.534  448.107  448.790  449.343  448.494  448.782  448.248  448.946  449.652  449.820  449.215  448.561  448.868  450.739  450.000  449.101  449.147  449.694  449.269  449.721  449.960  449.931  450.020  450.395  449.667  449.144  449.518  449.454  449.627  449.544  449.588  450.279  450.104  450.366  449.173  449.396  449.286  449.557  448.942  449.737  449.526  450.052  450.193  450.711  449.369  449.792  450.514  449.667  450.106  449.840  449.474  450.251  452.730  449.634  449.231  450.357  449.419  449.674  450.126  450.826  449.993  450.347  450.104  450.196  449.659  450.401  450.865  450.374  450.600  450.773  450.354  451.178  450.836  450.664  450.104  450.231  450.474  449.995  449.578  450.910  450.276  449.326  449.978  450.349  451.128  450.916  450.771  451.951  451.153  452.170  451.685  451.340  451.138  451.646  450.396  449.262  449.798  449.556 
DATE 2017:116:15:13:55 obsn 443 az 301 el 54 freq_MHz  1417.5000 Tsys 165.000 Tant 254.556 vlsr  -32.85 glat  5.869 glon 76.016 azoff 8.43 eloff 0.00 source CygnusA 
Fstart 1416.497 fstop 1418.503 spacing 0.009375 bw    2.400 fbw    2.000 MHz nfreq 256 nsam 5242880 npoint 214 integ   324 sigma    0.189 bsw 29
Spectrum    297 integration periods
  15.899   16.310   16.311   16.295   16.131   16.310   16.303   16.494   16.172   16.529   16.509   16.551   15.936   15.910   16.447   16.836   16.337   16.284   16.356   16.697   16.272   16.340   16.984   16.170   16.204   16.315   16.512   16.586   16.253   16.439   16.144   15.981   16.199   16.476   16.399   16.567   16.284   16.037   16.112   16.012   16.509   16.477   17.089   16.308   16.461   16.185   16.631   16.470   16.482   16.781   16.391   15.901   16.295   16.146   16.038   16.286   16.231   16.006   15.877   16.336   16.542   16.067   16.872   16.196   16.050   15.777   15.992   16.122   15.829   16.498   15.855   15.739   15.537   16.217   16.222   16.809   15.906   15.966   15.868   15.960   16.395   15.670   16.620   15.690   16.055   15.761   15.875   15.588   15.742   16.271   15.982   15.387   15.788   15.677   15.403   16.204   15.789   15.696   15.728   15.658   15.569   15.446   16.215   15.819   15.787   15.753   15.454   16.877   15.492   15.327   15.481   15.446   15.934   15.432   15.459   15.524   15.649   15.133   15.208   15.520   15.568   15.663   15.231   14.996   14.687   15.564   14.861   15.231   15.177   14.861   15.135   15.080   14.998   15.034   15.285   15.319   14.575   15.314   15.495   15.079   15.420   14.805   15.631   14.934   14.835   15.032   15.293   14.994   14.707   14.849   15.079   14.848   14.899   14.948   15.201   14.687   14.524   14.770   15.055   15.247   14.881   15.145   14.710   15.217   15.064   14.980   14.582   14.686   13.884   14.623   14.745   14.504   14.651   14.271   14.795   14.910   15.024   14.984   14.451   14.474   14.626   14.732   14.975   15.050   14.466   14.274   14.737   14.343   14.824   14.036   14.636   14.422   14.748   14.458   14.734   14.292   14.182   14.724   14.735   14.466   14.335   14.621   14.133   14.602   14.459   14.143   14.330   14.283   14.481   13.834   14.220   14.287   14.365   14.279 
DATE 2017:116:15:14:27 obsn 444 az 293 el 53 freq_MHz  1417.5000 Tsys 165.000 Tant 287.201 vlsr  -32.85 glat  5.869 glon 76.016 azoff 0.00 eloff 0.00 source CygnusA 
Fstart 1416.497 fstop 1418.503 spacing 0.009375 bw    2.400 fbw    2.000 MHz nfreq 256 nsam 5242880 npoint 214 integ   335 sigma    0.186 bsw 30
Spectrum    307 integration periods
  15.451   15.824   15.874   15.846   15.733   15.931   15.899   16.071   15.772   16.086   16.037   16.091   15.531   15.433   16.056   16.425   15.883   15.877   15.965   16.238   15.849   15.888   16.528   15.770   15.802   15.898   16.113   16.103   15.878   16.060   15.663   15.551   15.805   16.035   15.980   16.211   15.852   15.608   15.710   15.567   16.058   16.042   16.722   15.839   16.059   15.738   16.218   16.000   16.025   16.337   15.936   15.435   15.888   15.750   15.628   15.846   15.822   15.612   15.510   15.873   16.115   15.613   16.399   15.813   15.638   15.329   15.523   15.714   15.462   16.019   15.465   15.315   15.123   15.773   15.783   16.430   15.509   15.538   15.461   15.555   15.951   15.221   16.176   15.224   15.641   15.275   15.468   15.245   15.302   15.846   15.606   14.990   15.334   15.272   15.011   15.781   15.386   15.324   15.309   15.276   15.166   15.032   15.740   15.359   15.350   15.322   15.090   16.388   15.092   14.912   15.089   15.028   15.535   15.070   15.065   15.132   15.278   14.736   14.873   15.080   15.140   15.167   14.823   14.565   14.398   15.156   14.412   14.839   14.780   14.499   14.809   14.725   14.647   14.624   14.857   14.868   14.224   14.929   14.981   14.573   15.030   14.395   15.234   14.585   14.372   14.681   14.938   14.612   14.243   14.430   14.659   14.450   14.524   14.557   14.805   14.299   14.125   14.424   14.690   14.826   14.530   14.769   14.349   14.838   14.663   14.601   14.189   14.283   13.710   14.209   14.375   14.200   14.301   13.912   14.392   14.562   14.610   14.577   14.131   14.081   14.191   14.368   14.592   14.669   14.054   13.837   14.332   13.923   14.429   13.650   14.252   14.006   14.370   14.116   14.349   13.955   13.774   14.398   14.307   13.988   13.895   14.209   13.723   14.224   14.176   13.720   13.932   13.950   14.098   13.436   13.774   13.853   14.044   13.892 
DATE 2017:116:15:14:51 obsn 445 az 284 el 53 freq_MHz  1417.5000 Tsys 165.000 Tant 270.057 vlsr  -32.85 glat  5.869 glon 76.016 azoff -8.39 eloff 0.00 source CygnusA 
Fstart 1416.497 fstop 1418.503 spacing 0.009375 bw    2.400 fbw    2.000 MHz nfreq 256 nsam 5242880 npoint 214 integ   346 sigma    0.183 bsw 31
Spectrum    317 integration periods
  15.378   15.781   15.780   15.787   15.665   15.866   15.810   15.971   15.714   15.998   15.915   16.038   15.436   15.347   15.915   16.342   15.826   15.731   15.909   16.085   15.733   15.762   16.451   15.726   15.740   15.820   16.010   16.024   15.796   15.948   15.564   15.533   15.676   15.950   15.890   16.109   15.744   15.474   15.561   15.508   15.972   15.946   16.581   15.736   15.891   15.613   16.093   15.855   15.920   16.176   15.796   15.292   15.742   15.663   15.484   15.729   15.697   15.545   15.349   15.777   16.037   15.489   16.274   15.718   15.531   15.223   15.366   15.602   15.364   15.915   15.276   15.243   14.953   15.649   15.622   16.243   15.405   15.429   15.304   15.433   15.799   15.150   16.090   15.111   15.439   15.187   15.376   15.157   15.156   15.707   15.543   14.798   15.218   15.154   14.972   15.687   15.296   15.172   15.104   15.106   15.004   14.952   15.644   15.212   15.164   15.178   14.931   16.224   15.001   14.801   15.003   14.910   15.375   14.890   14.921   14.945   15.147   14.535   14.752   14.952   14.940   15.026   14.656   14.415   14.276   15.002   14.228   14.685   14.675   14.379   14.614   14.541   14.417   14.426   14.600   14.682   14.063   14.739   14.847   14.362   14.837   14.136   14.971   14.445   14.128   14.471   14.724   14.493   14.078   14.298   14.518   14.225   14.398   14.365   14.621   14.120   13.957   14.260   14.496   14.599   14.313   14.550   14.177   14.703   14.452   14.390   14.071   14.113   13.601   14.038   14.166   13.980   14.083   13.775   14.180   14.349   14.424   14.394   13.980   13.934   14.022   14.173   14.347   14.499   13.861   13.688   14.148   13.782   14.195   13.453   14.062   13.819   14.282   13.996   14.075   13.745   13.539   14.213   14.121   13.777   13.646   14.006   13.569   14.022   14.028   13.489   13.681   13.757   13.891   13.265   13.602   13.671   13.887   13.732 
DATE 2017:116:15:15:15 obsn 446 az 293 el 53 freq_MHz  1417.5000 Tsys 165.000 Tant 291.508 vlsr  -32.85 glat  5.869 glon 76.016 azoff 0.00 eloff 0.00 source CygnusA 
Fstart 1416.497 fstop 1418.503 spacing 0.009375 bw    2.400 fbw    2.000 MHz nfreq 256 nsam 5242880 npoint 214 integ   357 sigma    0.180 bsw 32
Spectrum    327 integration periods
  15.282   15.639   15.664   15.690   15.566   15.776   15.731   15.849   15.593   15.878   15.821   15.992   15.333   15.229   15.841   16.223   15.772   15.659   15.745   16.006   15.602   15.724   16.396   15.636   15.643   15.673   15.929   15.901   15.663   15.876   15.460   15.494   15.608   15.924   15.777   16.022   15.651   15.408   15.463   15.456   15.841   15.844   16.447   15.540   15.758   15.423   15.895   15.721   15.783   16.071   15.704   15.164   15.653   15.472   15.358   15.600   15.564   15.413   15.267   15.683   15.922   15.406   16.107   15.551   15.359   15.143   15.229   15.552   15.275   15.800   15.145   15.115   14.838   15.491   15.573   16.063   15.273   15.318   15.209   15.310   15.700   15.019   16.022   14.988   15.336   15.082   15.208   15.019   15.028   15.633   15.366   14.665   15.122   15.020   14.862   15.566   15.196   15.080   14.996   15.042   14.852   14.820   15.468   15.137   15.055   15.134   14.846   16.078   14.992   14.677   14.824   14.774   15.270   14.820   14.752   14.750   15.015   14.434   14.656   14.838   14.856   14.875   14.523   14.286   14.195   14.891   14.080   14.588   14.555   14.256   14.438   14.392   14.310   14.290   14.483   14.570   13.920   14.563   14.680   14.265   14.670   14.010   14.840   14.312   14.059   14.367   14.578   14.400   13.928   14.163   14.453   14.101   14.292   14.221   14.439   14.034   13.846   14.214   14.407   14.469   14.133   14.373   14.083   14.532   14.255   14.266   13.942   13.967   13.428   13.887   14.037   13.796   13.889   13.648   13.999   14.172   14.284   14.224   13.838   13.794   13.876   14.010   14.193   14.299   13.629   13.595   13.962   13.669   14.027   13.338   13.969   13.726   14.077   13.927   13.936   13.580   13.363   14.057   13.958   13.636   13.537   13.835   13.433   13.884   13.907   13.306   13.509   13.602   13.739   13.133   13.471   13.545   13.704   13.558 
DATE 2017:116:15:15:39 obsn 447 az 301 el 53 freq_MHz  1417.5000 Tsys 165.000 Tant 249.388 vlsr  -32.85 glat  5.869 glon 76.016 azoff 8.36 eloff 0.00 source CygnusA 
Fstart 1416.497 fstop 1418.503 spacing 0.009375 bw    2.400 fbw    2.000 MHz nfreq 256 nsam 5242880 npoint 214 integ   368 sigma    0.178 bsw 33
Spectrum    337 integration periods
  15.482   15.806   15.874   15.856   15.730   15.966   15.921   16.022   15.768   16.067   15.972   16.127   15.521   15.480   16.030   16.401   15.955   15.770   15.953   16.140   15.799   15.913   16.549   15.840   15.769   15.874   16.090   16.069   15.793   16.104   15.669   15.587   15.741   16.102   15.929   16.203   15.848   15.624   15.697   15.625   16.010   16.069   16.626   15.718   15.893   15.577   16.147   15.894   15.960   16.288   15.833   15.325   15.903   15.651   15.550   15.800   15.725   15.623   15.436   15.871   16.093   15.573   16.378   15.720   15.488   15.264   15.388   15.677   15.393   15.951   15.399   15.317   15.021   15.621   15.770   16.221   15.470   15.485   15.355   15.441   15.876   15.189   16.193   15.234   15.466   15.318   15.377   15.144   15.225   15.804   15.526   14.889   15.305   15.207   15.071   15.726   15.312   15.260   15.171   15.216   15.004   15.012   15.645   15.287   15.206   15.342   15.012   16.233   15.172   14.933   15.049   14.952   15.489   14.991   14.997   14.939   15.192   14.632   14.875   14.973   15.006   15.003   14.702   14.471   14.299   15.065   14.260   14.819   14.741   14.399   14.598   14.595   14.538   14.497   14.678   14.703   14.112   14.742   14.852   14.414   14.850   14.209   14.957   14.471   14.251   14.493   14.734   14.601   14.121   14.309   14.655   14.336   14.464   14.375   14.608   14.220   14.043   14.374   14.585   14.672   14.297   14.562   14.293   14.698   14.345   14.462   14.164   14.152   13.642   14.060   14.235   14.000   14.070   13.849   14.165   14.357   14.454   14.390   14.018   13.979   14.121   14.189   14.367   14.459   13.812   13.757   14.149   13.807   14.196   13.496   14.139   13.864   14.213   14.101   14.080   13.772   13.533   14.179   14.138   13.862   13.690   14.006   13.691   14.057   14.078   13.464   13.752   13.803   13.902   13.330   13.658   13.683   13.865   13.793 
DATE 2017:116:15:16:03 obsn 448 az 293 el 53 freq_MHz  1417.5000 Tsys 165.000 Tant 306.870 vlsr  -32.85 glat  5.869 glon 76.016 azoff 0.00 eloff 0.00 source CygnusA 
Fstart 1416.497 fstop 1418.503 spacing 0.009375 bw    2.400 fbw    2.000 MHz nfreq 256 nsam 5242880 npoint 214 integ   379 sigma    0.175 bsw 34
Spectrum    347 integration periods
  15.480   15.829   15.990   15.945   15.791   16.077   15.960   16.022   15.805   16.143   16.011   16.168   15.633   15.546   16.114   16.407   15.936   15.837   15.986   16.189   15.839   15.926   16.568   15.959   15.817   15.917   16.118   16.139   15.828   16.128   15.743   15.645   15.857   16.203   16.006   16.225   15.928   15.648   15.803   15.690   16.082   16.108   16.713   15.815   15.934   15.597   16.142   15.975   16.022   16.360   15.900   15.350   15.940   15.700   15.640   15.814   15.729   15.722   15.537   15.876   16.149   15.620   16.399   15.834   15.561   15.330   15.429   15.721   15.450   16.013   15.492   15.413   15.087   15.723   15.831   16.300   15.523   15.559   15.412   15.462   15.923   15.200   16.227   15.331   15.553   15.409   15.476   15.195   15.224   15.843   15.585   14.952   15.367   15.251   15.191   15.788   15.403   15.327   15.239   15.296   15.053   15.011   15.662   15.332   15.291   15.385   15.051   16.390   15.293   15.030   15.063   15.038   15.500   15.061   15.014   15.031   15.233   14.687   14.914   14.984   15.059   15.055   14.755   14.512   14.399   15.145   14.309   14.877   14.787   14.466   14.657   14.640   14.595   14.573   14.757   14.741   14.209   14.776   14.911   14.475   14.859   14.330   14.992   14.545   14.344   14.551   14.797   14.621   14.199   14.466   14.752   14.415   14.541   14.406   14.678   14.328   14.129   14.466   14.626   14.716   14.389   14.610   14.375   14.762   14.417   14.531   14.209   14.239   13.753   14.058   14.264   14.029   14.145   13.967   14.199   14.365   14.547   14.476   14.093   14.044   14.153   14.264   14.402   14.502   13.852   13.861   14.205   13.858   14.224   13.596   14.170   13.880   14.195   14.132   14.149   13.816   13.572   14.258   14.208   13.903   13.735   14.062   13.818   14.160   14.104   13.578   13.830   13.901   13.912   13.382   13.691   13.787   13.890   13.829 
DATE 2017:116:15:16:27 obsn 449 az 285 el 53 freq_MHz  1417.5000 Tsys 165.000 Tant 274.593 vlsr  -32.85 glat  5.869 glon 76.016 azoff -8.33 eloff 0.00 source CygnusA 
Fstart 1416.497 fstop 1418.503 spacing 0.009375 bw    2.400 fbw    2.000 MHz nfreq 256 nsam 5242880 npoint 214 integ   390 sigma    0.173 bsw 35
Spectrum    357 integration periods
  15.294   15.661   15.803   15.776   15.655   15.931   15.790   15.892   15.594   15.939   15.868   16.015   15.460   15.395   15.991   16.207   15.741   15.670   15.874   15.980   15.617   15.721   16.335   15.800   15.656   15.693   15.946   15.929   15.679   15.934   15.582   15.453   15.752   16.051   15.777   16.072   15.754   15.468   15.644   15.528   15.916   15.923   16.468   15.601   15.830   15.393   16.009   15.750   15.818   16.175   15.679   15.169   15.750   15.512   15.440   15.637   15.618   15.517   15.377   15.681   15.968   15.443   16.270   15.679   15.398   15.206   15.311   15.559   15.262   15.900   15.314   15.252   14.842   15.560   15.603   16.127   15.346   15.346   15.215   15.300   15.737   15.021   16.027   15.193   15.354   15.216   15.337   15.043   15.133   15.679   15.426   14.798   15.107   15.072   14.963   15.551   15.220   15.166   15.059   15.147   14.952   14.831   15.541   15.131   15.130   15.197   14.908   16.344   15.148   14.857   14.897   14.926   15.350   14.880   14.830   14.846   15.090   14.561   14.717   14.818   14.866   14.882   14.651   14.334   14.228   14.951   14.120   14.685   14.581   14.312   14.516   14.483   14.381   14.416   14.586   14.586   14.090   14.598   14.763   14.337   14.694   14.144   14.841   14.403   14.171   14.385   14.614   14.474   14.056   14.264   14.623   14.297   14.359   14.198   14.482   14.166   13.991   14.304   14.490   14.550   14.200   14.403   14.176   14.621   14.254   14.362   14.047   14.041   13.596   13.948   14.036   13.843   14.012   13.850   13.999   14.183   14.356   14.286   13.912   13.844   14.038   14.067   14.202   14.355   13.725   13.733   14.073   13.776   14.020   13.449   13.981   13.718   14.047   13.921   13.920   13.641   13.445   14.054   14.009   13.760   13.592   13.879   13.622   14.004   14.001   13.479   13.693   13.731   13.753   13.227   13.567   13.637   13.733   13.685 
DATE 2017:116:15:16:51 obsn 450 az 293 el 53 freq_MHz  1417.5000 Tsys 165.000 Tant 302.762 vlsr  -32.85 glat  5.869 glon 76.016 azoff 0.00 eloff 0.00 source CygnusA 
Fstart 1416.497 fstop 1418.503 spacing 0.009375 bw    2.400 fbw    2.000 MHz nfreq 256 nsam 5242880 npoint 214 integ   401 sigma    0.170 bsw 36
Spectrum    367 integration periods
  14.955   15.267   15.419   15.330   15.244   15.535   15.337   15.492   15.223   15.505   15.497   15.631   15.092   14.972   15.628   15.802   15.312   15.300   15.497   15.518   15.206   15.277   15.915   15.453   15.261   15.287   15.503   15.553   15.286   15.479   15.152   15.039   15.297   15.681   15.374   15.751   15.359   15.090   15.280   15.075   15.511   15.524   15.975   15.227   15.419   15.004   15.577   15.386   15.402   15.772   15.256   14.751   15.320   15.117   15.058   15.294   15.300   15.105   15.023   15.272   15.591   15.104   15.931   15.325   15.027   14.863   14.960   15.114   14.862   15.517   14.962   14.838   14.495   15.133   15.214   15.723   14.935   14.911   14.839   14.966   15.344   14.646   15.635   14.834   14.972   14.824   15.039   14.673   14.778   15.287   14.983   14.506   14.723   14.658   14.575   15.186   14.805   14.781   14.637   14.793   14.584   14.457   15.105   14.703   14.789   14.790   14.489   15.902   14.805   14.470   14.509   14.583   14.949   14.426   14.408   14.492   14.669   14.181   14.350   14.415   14.464   14.504   14.280   13.976   13.929   14.592   13.784   14.248   14.203   13.950   14.142   14.158   13.961   14.066   14.198   14.183   13.712   14.185   14.374   13.958   14.330   13.731   14.489   13.962   13.802   14.014   14.219   14.086   13.709   13.846   14.209   13.918   13.958   13.754   14.104   13.808   13.639   13.904   14.119   14.185   13.820   13.994   13.824   14.226   13.814   13.971   13.664   13.621   13.259   13.559   13.590   13.415   13.657   13.442   13.612   13.835   13.940   13.902   13.578   13.437   13.636   13.661   13.771   13.976   13.405   13.323   13.709   13.354   13.623   13.100   13.584   13.337   13.693   13.489   13.528   13.275   13.101   13.631   13.621   13.367   13.195   13.513   13.245   13.582   13.599   13.067   13.268   13.351   13.387   12.899   13.204   13.281   13.399   13.323 
DATE 2017:116:15:17:15 obsn 451 az 301 el 53 freq_MHz  1417.5000 Tsys 165.000 Tant 255.212 vlsr  -32.85 glat  5.869 glon 76.016 azoff 8.30 eloff 0.00 source CygnusA 
Fstart 1416.497 fstop 1418.503 spacing 0.009375 bw    2.400 fbw    2.000 MHz nfreq 256 nsam 5242880 npoint 214 integ   412 sigma    0.168 bsw 37
Spectrum    377 integration periods
  15.013   15.310   15.510   15.401   15.257   15.586   15.355   15.548   15.304   15.550   15.575   15.693   15.185   15.040   15.656   15.891   15.381   15.385   15.552   15.576   15.295   15.345   15.920   15.501   15.340   15.364   15.522   15.577   15.399   15.602   15.252   15.138   15.339   15.714   15.440   15.839   15.427   15.190   15.320   15.185   15.539   15.632   16.057   15.303   15.421   15.090   15.626   15.475   15.440   15.819   15.332   14.804   15.408   15.189   15.120   15.365   15.345   15.187   15.075   15.286   15.662   15.175   15.967   15.440   15.133   14.974   14.993   15.155   14.907   15.508   15.000   14.914   14.533   15.227   15.305   15.790   14.978   14.910   14.920   15.022   15.358   14.745   15.728   14.894   15.026   14.850   15.164   14.741   14.842   15.369   15.021   14.609   14.773   14.737   14.638   15.215   14.889   14.814   14.725   14.858   14.637   14.525   15.119   14.779   14.822   14.831   14.565   15.956   14.849   14.538   14.652   14.658   15.032   14.573   14.482   14.591   14.750   14.225   14.382   14.433   14.537   14.589   14.352   14.061   13.996   14.676   13.830   14.306   14.240   14.009   14.205   14.242   14.067   14.125   14.215   14.261   13.785   14.293   14.430   14.024   14.397   13.737   14.526   14.064   13.882   14.077   14.325   14.141   13.764   13.947   14.276   14.017   14.052   13.827   14.157   13.895   13.718   13.956   14.159   14.218   13.891   14.066   13.913   14.330   13.911   14.039   13.727   13.666   13.326   13.592   13.678   13.469   13.770   13.504   13.728   13.906   13.982   13.917   13.672   13.544   13.718   13.715   13.791   14.013   13.468   13.383   13.795   13.423   13.724   13.145   13.685   13.440   13.816   13.539   13.623   13.373   13.169   13.751   13.713   13.433   13.284   13.597   13.313   13.643   13.680   13.177   13.320   13.452   13.408   12.986   13.320   13.345   13.470   13.354 
DATE 2017:116:15:17:39 obsn 452 az 293 el 53 freq_MHz  1417.5000 Tsys 165.000 Tant 297.420 vlsr  -32.85 glat  5.869 glon 76.016 azoff 0.00 eloff 0.00 source CygnusA 
Fstart 1416.497 fstop 1418.503 spacing 0.009375 bw    2.400 fbw    2.000 MHz nfreq 256 nsam 5242880 npoint 214 integ   423 sigma    0.166 bsw 38
Spectrum    387 integration periods
  15.029   15.389   15.631   15.393   15.285   15.632   15.417   15.596   15.376   15.590   15.577   15.814   15.204   15.090   15.756   15.948   15.502   15.449   15.597   15.637   15.345   15.420   15.989   15.569   15.374   15.376   15.573   15.605   15.459   15.628   15.316   15.107   15.444   15.754   15.507   15.893   15.489   15.269   15.390   15.227   15.603   15.668   16.067   15.339   15.448   15.110   15.646   15.496   15.488   15.904   15.444   14.924   15.480   15.239   15.191   15.410   15.388   15.242   15.162   15.342   15.673   15.223   16.014   15.500   15.157   15.064   15.042   15.175   15.017   15.613   15.028   14.969   14.537   15.286   15.362   15.794   15.076   14.923   14.918   15.050   15.427   14.870   15.763   14.982   15.100   14.898   15.172   14.778   14.885   15.405   15.084   14.676   14.822   14.746   14.715   15.249   14.911   14.847   14.763   14.950   14.674   14.621   15.152   14.797   14.882   14.934   14.642   15.969   14.867   14.606   14.687   14.735   15.063   14.655   14.510   14.658   14.778   14.249   14.394   14.434   14.594   14.607   14.381   14.077   14.058   14.657   13.853   14.332   14.240   14.043   14.262   14.322   14.059   14.202   14.290   14.290   13.849   14.403   14.451   14.064   14.455   13.828   14.584   14.115   13.956   14.142   14.372   14.242   13.834   13.999   14.274   14.099   14.127   13.917   14.233   13.901   13.811   14.043   14.207   14.266   13.964   14.111   13.941   14.355   14.007   14.086   13.781   13.744   13.029   13.684   13.732   13.499   13.795   13.567   13.727   13.942   14.025   13.967   13.726   13.604   13.752   13.780   13.842   14.116   13.574   13.397   13.879   13.519   13.762   13.105   13.746   13.483   13.856   13.573   13.644   13.421   13.225   13.771   13.724   13.497   13.325   13.605   13.339   13.679   13.733   13.265   13.406   13.508   13.477   12.978   13.373   13.386   13.537   13.436 
DATE 2017:116:15:18:03 obsn 453 az 285 el 53 freq_MHz  1417.5000 Tsys 165.000 Tant 297.549 vlsr  -32.85 glat  5.869 glon 76.016 azoff -8.27 eloff 0.00 source CygnusA 
Fstart 1416.497 fstop 1418.503 spacing 0.009375 bw    2.400 fbw    2.000 MHz nfreq 256 nsam 5242880 npoint 214 integ   434 sigma    0.164 bsw 39
Spectrum    397 integration periods
 451.994  448.804  447.428  446.315  446.701  446.933  447.892  447.503  447.885  447.715  447.209  447.256  447.268  447.708  446.567  447.758  446.470  447.409  446.988  447.821  447.314  447.793  448.252  447.471  447.302  447.675  448.430  447.437  448.190  449.707  448.638  447.907  447.918  447.549  447.674  449.169  448.317  447.814  448.013  447.568  447.278  447.029  448.720  447.726  447.411  447.766  446.959  447.159  447.116  448.927  447.383  446.765  446.758  447.394  447.443  449.017  446.951  446.924  446.534  447.618  447.276  447.627  448.882  447.085  447.485  447.419  447.524  447.790  447.857  448.982  447.841  447.343  447.635  447.092  447.717  449.279  447.583  447.188  447.413  447.578  447.753  447.748  449.098  448.377  447.780  447.841  447.732  447.747  447.147  448.650  447.185  447.172  448.247  447.499  447.580  448.311  446.870  447.112  447.231  447.748  447.354  446.743  448.431  447.341  446.878  447.318  448.617  451.239  447.083  448.294  446.888  447.316  448.239  447.400  446.578  448.466  447.785  447.370  448.140  448.588  447.868  448.061  447.880  448.259  448.985  449.395  448.528  447.999  448.228  450.133  449.405  448.470  448.495  449.167  448.616  448.855  449.346  449.119  448.876  449.533  449.005  448.526  448.774  448.735  448.768  448.911  448.875  449.430  449.184  449.514  448.845  448.830  448.913  448.863  448.406  449.060  448.926  449.367  449.424  449.846  448.907  449.236  449.933  449.128  449.620  449.095  448.954  449.647  452.296  449.080  448.690  449.908  449.010  448.927  449.456  450.412  449.195  449.512  449.310  449.597  449.181  449.559  450.139  449.714  449.910  450.350  449.687  450.286  450.216  450.180  449.590  449.525  449.675  449.404  449.125  450.251  449.540  449.054  449.473  449.621  450.526  450.360  450.231  451.590  450.901  451.777  451.178  450.714  450.447  450.886  449.609  448.529  449.148  448.760 
DATE 2017:116:15:18:16 obsn 454 az 285 el 53 freq_MHz  1417.5000 Tsys 165.000 Tant 273.823 vlsr  -32.85 glat  5.869 glon 76.016 azoff -8.27 eloff 0.00 source CygnusA 
Fstart 1416.497 fstop 1418.503 spacing 0.009375 bw    2.400 fbw    2.000 MHz nfreq 256 nsam 5242880 npoint 214 integ   445 sigma    0.162 bsw 39
Spectrum    407 integration periods
  14.698   15.030   15.317   15.090   14.956   15.271   15.081   15.250   15.034   15.231   15.202   15.420   14.852   14.774   15.357   15.610   15.111   15.118   15.234   15.316   14.990   15.061   15.604   15.148   15.064   15.085   15.212   15.215   15.080   15.270   15.037   14.765   15.160   15.381   15.174   15.502   15.108   14.911   15.004   14.851   15.218   15.305   15.656   15.002   15.161   14.814   15.271   15.133   15.132   15.557   15.056   14.581   15.129   14.887   14.867   15.107   15.044   14.827   14.837   14.884   15.298   15.021   15.625   15.109   14.834   14.681   14.644   14.818   14.654   15.293   14.689   14.582   14.229   14.852   15.069   15.398   14.747   14.469   14.573   14.667   15.058   14.462   15.388   14.679   14.726   14.563   14.803   14.432   14.550   15.015   14.717   14.362   14.459   14.314   14.271   14.910   14.507   14.482   14.376   14.571   14.300   14.278   14.704   14.431   14.493   14.628   14.253   15.654   14.417   14.252   14.294   14.358   14.648   14.354   14.174   14.351   14.361   13.838   13.991   14.074   14.243   14.267   14.059   13.680   13.637   14.374   13.542   13.979   13.891   13.749   13.943   13.987   13.723   13.873   13.827   13.951   13.514   14.034   14.104   13.710   14.084   13.472   14.161   13.754   13.568   13.731   13.969   13.890   13.450   13.709   13.929   13.733   13.853   13.503   13.865   13.548   13.508   13.685   13.771   13.857   13.584   13.719   13.578   14.026   13.683   13.746   13.360   13.347   12.683   13.277   13.352   13.084   13.413   13.228   13.306   13.571   13.641   13.679   13.326   13.198   13.401   13.422   13.494   13.690   13.252   13.073   13.490   13.113   13.339   12.757   13.392   12.996   13.455   13.211   13.299   13.073   12.830   13.354   13.386   13.114   12.960   13.264   12.998   13.343   13.336   12.897   12.996   13.127   13.109   12.666   12.998   12.987   13.250   13.070 
DATE 2017:116:15:18:40 obsn 455 az 293 el 53 freq_MHz  1417.5000 Tsys 165.000 Tant 347.111 vlsr  -32.85 glat  5.869 glon 76.016 azoff 0.00 eloff 0.00 source CygnusA 
Fstart 1416.497 fstop 1418.503 spacing 0.009375 bw    2.400 fbw    2.000 MHz nfreq 256 nsam 5242880 npoint 214 integ   455 sigma    0.160 bsw 40
Spectrum    417 integration periods
  14.899   15.259   15.528   15.298   15.145   15.461   15.328   15.497   15.224   15.464   15.473   15.697   15.126   14.968   15.618   15.816   15.344   15.329   15.457   15.516   15.162   15.257   15.815   15.359   15.284   15.278   15.362   15.444   15.316   15.469   15.310   14.962   15.364   15.634   15.407   15.755   15.305   15.079   15.206   15.041   15.474   15.551   15.858   15.194   15.402   15.041   15.513   15.393   15.345   15.768   15.272   14.804   15.274   15.124   15.089   15.258   15.230   15.072   15.049   15.033   15.485   15.228   15.796   15.311   15.022   14.838   14.862   15.049   14.937   15.473   14.902   14.885   14.422   15.067   15.286   15.662   14.938   14.711   14.717   14.891   15.291   14.664   15.548   14.812   14.927   14.806   15.011   14.692   14.789   15.246   14.941   14.558   14.669   14.524   14.480   15.122   14.657   14.722   14.610   14.741   14.499   14.471   14.941   14.651   14.720   14.809   14.432   15.944   14.657   14.516   14.502   14.577   14.931   14.575   14.402   14.575   14.580   14.099   14.187   14.290   14.458   14.490   14.269   13.925   13.866   14.610   13.744   14.251   14.095   13.973   14.139   14.164   13.922   14.105   14.016   14.186   13.770   14.267   14.320   13.937   14.250   13.739   14.382   13.930   13.816   13.907   14.128   14.129   13.699   13.924   14.191   13.935   14.095   13.679   14.089   13.795   13.750   13.882   14.025   14.121   13.802   13.924   13.729   14.241   13.889   13.893   13.554   13.530   12.835   13.537   13.549   13.253   13.611   13.424   13.486   13.716   13.827   13.857   13.513   13.400   13.581   13.586   13.766   13.910   13.468   13.312   13.659   13.292   13.538   12.959   13.571   13.234   13.634   13.369   13.499   13.267   13.097   13.559   13.609   13.350   13.181   13.434   13.160   13.528   13.533   13.106   13.181   13.339   13.322   12.834   13.226   13.165   13.430   13.251 
DATE 2017:116:15:19:04 obsn 456 az 301 el 53 freq_MHz  1417.5000 Tsys 165.000 Tant 253.053 vlsr  -32.85 glat  5.869 glon 76.016 azoff 8.24 eloff 0.00 source CygnusA 
Fstart 1416.497 fstop 1418.503 spacing 0.009375 bw    2.400 fbw    2.000 MHz nfreq 256 nsam 5242880 npoint 214 integ   466 sigma    0.158 bsw 41
Spectrum    427 integration periods
  15.088   15.433   15.691   15.462   15.340   15.688   15.508   15.661   15.404   15.659   15.643   15.865   15.288   15.161   15.809   16.003   15.553   15.538   15.644   15.711   15.334   15.430   16.005   15.599   15.470   15.460   15.521   15.620   15.454   15.694   15.518   15.182   15.528   15.825   15.598   15.989   15.523   15.278   15.431   15.277   15.671   15.794   16.045   15.410   15.617   15.247   15.736   15.570   15.551   15.950   15.476   15.028   15.520   15.339   15.308   15.422   15.408   15.278   15.239   15.239   15.650   15.444   15.924   15.496   15.253   15.030   15.014   15.250   15.117   15.654   15.096   15.088   14.593   15.266   15.415   15.873   15.169   14.919   14.942   15.086   15.508   14.874   15.741   15.032   15.123   15.023   15.240   14.894   14.931   15.468   15.120   14.748   14.856   14.726   14.667   15.327   14.865   14.881   14.778   14.953   14.711   14.672   15.145   14.856   14.865   14.997   14.656   16.163   14.908   14.707   14.680   14.718   15.096   14.749   14.601   14.814   14.782   14.317   14.375   14.509   14.655   14.683   14.481   14.114   14.095   14.846   13.942   14.453   14.316   14.136   14.331   14.326   14.105   14.282   14.198   14.427   13.998   14.495   14.548   14.106   14.434   13.915   14.567   14.131   14.025   14.086   14.299   14.305   13.900   14.132   14.393   14.153   14.267   13.843   14.270   13.988   13.956   14.114   14.229   14.308   14.044   14.153   13.905   14.465   14.052   14.090   13.733   13.728   13.088   13.722   13.748   13.461   13.761   13.648   13.722   13.967   14.022   14.061   13.732   13.619   13.739   13.745   13.991   14.073   13.637   13.503   13.841   13.503   13.724   13.150   13.758   13.411   13.889   13.590   13.705   13.407   13.310   13.807   13.793   13.536   13.357   13.633   13.348   13.709   13.729   13.290   13.371   13.549   13.511   13.034   13.469   13.385   13.687   13.392 
DATE 2017:116:15:19:36 obsn 457 az 293 el 52 freq_MHz  1417.5000 Tsys 165.000 Tant 296.320 vlsr  -32.85 glat  5.869 glon 76.016 azoff 0.00 eloff 0.00 source CygnusA 
Fstart 1416.497 fstop 1418.503 spacing 0.009375 bw    2.400 fbw    2.000 MHz nfreq 256 nsam 5242880 npoint 214 integ   477 sigma    0.156 bsw 42
Spectrum    437 integration periods
  15.098   15.429   15.673   15.478   15.400   15.644   15.458   15.623   15.405   15.671   15.656   15.824   15.288   15.157   15.843   16.001   15.560   15.538   15.607   15.706   15.282   15.442   15.994   15.562   15.461   15.449   15.522   15.645   15.386   15.680   15.503   15.246   15.553   15.804   15.529   15.977   15.551   15.289   15.439   15.254   15.659   15.778   16.061   15.367   15.582   15.294   15.695   15.630   15.576   15.903   15.433   15.016   15.476   15.385   15.295   15.415   15.394   15.331   15.236   15.255   15.600   15.464   15.893   15.477   15.240   15.079   15.030   15.244   15.117   15.664   15.109   15.112   14.598   15.249   15.438   15.899   15.129   14.916   14.942   15.101   15.552   14.885   15.700   14.990   15.079   15.017   15.237   14.889   14.954   15.464   15.087   14.769   14.859   14.713   14.673   15.290   14.847   14.844   14.769   14.959   14.703   14.697   15.109   14.872   14.866   14.984   14.628   16.154   14.908   14.680   14.697   14.796   15.069   14.749   14.628   14.834   14.780   14.298   14.402   14.488   14.674   14.674   14.496   14.120   14.112   14.852   13.964   14.469   14.334   14.131   14.323   14.325   14.131   14.270   14.192   14.359   13.992   14.506   14.520   14.084   14.417   13.968   14.610   14.154   14.042   14.070   14.233   14.307   13.882   14.113   14.383   14.147   14.261   13.842   14.268   13.973   13.968   14.105   14.215   14.294   14.024   14.217   13.923   14.433   14.028   14.126   13.721   13.749   13.092   13.747   13.786   13.486   13.722   13.721   13.708   13.985   14.041   14.040   13.758   13.597   13.753   13.765   13.953   14.050   13.617   13.474   13.836   13.505   13.698   13.190   13.721   13.421   13.842   13.630   13.712   13.410   13.330   13.791   13.798   13.585   13.369   13.611   13.375   13.748   13.757   13.331   13.390   13.554   13.554   13.024   13.454   13.344   13.729   13.426 
DATE 2017:116:15:20:10 obsn 458 az 293 el 52 freq_MHz  1417.5000 Tsys 165.000 Tant 321.407 vlsr  -32.85 glat  5.869 glon 76.016 azoff 0.00 eloff 0.00 source CygnusA 
Fstart 1416.497 fstop 1418.503 spacing 0.009375 bw    2.400 fbw    2.000 MHz nfreq 256 nsam 5242880 npoint 214 integ   488 sigma    0.077 bsw 0
Spectrum    447 integration periods
 452.457  449.475  448.057  446.845  447.177  447.379  448.416  448.115  448.293  448.246  447.783  447.829  447.886  448.113  447.259  448.255  446.930  447.891  447.544  448.209  447.789  448.268  448.842  447.911  447.862  448.115  448.841  447.932  448.711  450.102  449.104  448.499  448.441  448.257  448.158  449.819  448.853  448.220  448.443  448.226  447.829  447.620  449.265  448.267  447.961  448.300  447.425  447.826  447.939  449.559  447.845  447.255  447.251  448.008  447.920  449.425  447.563  447.595  447.082  448.131  447.654  448.121  449.423  447.606  447.942  447.827  448.082  448.327  448.506  449.446  448.357  448.188  448.204  447.737  448.313  449.942  447.949  447.913  447.816  448.223  448.365  448.320  449.549  448.836  448.394  448.414  448.275  448.214  447.834  449.169  447.635  447.665  448.860  447.989  448.248  448.816  447.483  447.749  447.951  448.229  447.824  447.199  448.888  447.999  447.551  447.824  449.109  451.990  447.723  448.872  447.427  447.918  448.987  447.960  447.104  448.965  448.383  448.028  448.704  449.178  448.433  448.546  448.492  448.982  449.563  449.850  449.033  448.592  448.685  450.651  449.931  448.955  449.097  449.830  449.274  449.399  449.811  449.590  449.464  450.102  449.454  449.297  449.435  449.247  449.384  449.421  449.441  449.968  449.714  450.091  449.432  449.360  449.519  449.490  449.206  449.655  449.478  449.889  450.090  450.511  449.426  449.905  450.497  449.648  450.198  449.601  449.534  450.218  452.693  449.838  449.151  450.481  449.609  449.367  450.091  450.960  449.682  450.040  449.849  450.107  449.724  450.159  450.646  450.293  450.493  450.729  450.195  450.852  450.814  450.652  450.034  450.108  450.212  449.837  449.618  450.807  450.186  449.568  450.096  450.307  451.066  450.842  450.766  452.043  451.496  452.357  451.739  451.336  451.068  451.350  450.020  449.036  449.579  449.351 
DATE 2017:116:15:20:24 obsn 459 az 293 el 52 freq_MHz  1417.5000 Tsys 165.000 Tant 297.759 vlsr  -32.85 glat  5.869 glon 76.016 azoff 0.00 eloff 0.00 source CygnusA 
Fstart 1416.497 fstop 1418.503 spacing 0.009375 bw    2.400 fbw    2.000 MHz nfreq 256 nsam 5242880 npoint 214 integ   499 sigma    0.076 bsw 0
Spectrum    457 integration periods
 452.812  449.887  448.518  447.242  447.539  447.774  448.807  448.585  448.748  448.665  448.182  448.254  448.278  448.501  447.700  448.648  447.319  448.310  447.993  448.610  448.182  448.645  449.278  448.301  448.281  448.569  449.274  448.390  449.123  450.543  449.500  448.936  448.849  448.700  448.584  450.277  449.279  448.587  448.887  448.656  448.254  448.026  449.689  448.660  448.379  448.701  447.823  448.253  448.380  449.980  448.245  447.727  447.678  448.379  448.364  449.810  448.004  447.985  447.496  448.537  448.056  448.500  449.805  448.024  448.335  448.262  448.554  448.748  448.909  449.887  448.757  448.615  448.596  448.128  448.691  450.371  448.356  448.296  448.235  448.618  448.714  448.713  449.938  449.225  448.789  448.847  448.702  448.626  448.262  449.611  447.992  448.078  449.279  448.366  448.644  449.215  447.892  448.163  448.279  448.619  448.186  447.594  449.295  448.426  447.946  448.194  449.533  452.437  448.118  449.264  447.797  448.333  449.450  448.353  447.470  449.361  448.808  448.436  449.086  449.544  448.808  448.865  448.906  449.356  449.915  450.209  449.474  448.976  449.056  451.022  450.324  449.307  449.535  450.159  449.689  449.800  450.155  449.947  449.874  450.505  449.896  449.690  449.807  449.654  449.829  449.833  449.858  450.337  450.073  450.492  449.845  449.749  449.957  449.859  449.578  450.009  449.856  450.260  450.482  450.893  449.757  450.300  450.910  450.061  450.606  450.012  449.877  450.643  453.039  450.245  449.505  450.882  449.995  449.761  450.494  451.332  450.027  450.401  450.207  450.450  450.117  450.542  451.024  450.646  450.853  451.104  450.616  451.211  451.205  451.035  450.459  450.471  450.583  450.164  449.976  451.184  450.557  449.949  450.466  450.693  451.387  451.158  451.092  452.427  451.860  452.742  452.075  451.704  451.421  451.752  450.450  449.398  449.948  449.711 
