DATE 2017:069:21:12:16 obsn   0 az 228 el 81 freq_MHz  1420.4000 Tsys 195.000 Tant 49.610 vlsr   20.88 glat -31.232 glon 133.843 source Trigl 
Fstart 1419.397 fstop 1421.403 spacing 0.009375 bw    2.400 fbw    2.000 MHz nfreq 256 nsam 5242880 npoint 214 integ     9 sigma    0.681 bsw 0
Spectrum      8 integration periods
 345.092  339.422  334.730  336.996  334.239  337.363  334.770  335.009  333.623  339.291  334.247  337.003  334.751  334.723  335.527  332.061  333.513  332.013  335.086  335.615  334.278  334.148  336.397  333.957  336.040  335.498  335.705  335.861  338.810  334.774  336.115  337.823  336.718  337.080  338.903  336.246  338.557  338.593  337.570  335.865  335.982  333.435  338.503  334.569  336.163  332.140  331.525  332.903  330.654  331.252  331.737  332.458  328.770  330.020  329.021  326.538  329.736  329.563  325.671  325.873  329.731  328.795  329.171  349.504  342.727  344.022  331.745  325.049  326.324  329.853  318.724  326.100  324.393  325.731  325.942  326.826  327.534  327.690  327.161  328.112  330.869  328.127  329.092  328.991  330.550  329.899  332.692  332.593  332.030  332.598  331.444  332.666  331.550  338.624  341.284  340.938  345.720  347.708  347.221  345.263  343.508  339.279  339.134  338.997  335.657  337.717  337.616  340.186  336.391  335.753  337.856  338.796  339.397  341.810  337.033  336.557  338.623  335.888  338.151  338.620  339.861  337.806  336.190  340.796  336.781  337.836  338.373  336.550  336.684  338.281  339.804  337.065  337.123  341.271  338.250  334.553  338.984  339.903  336.917  338.195  338.843  339.908  336.997  338.965  339.537  338.614  336.721  340.168  338.144  341.779  346.533  339.015  340.009  342.354  340.110  344.343  341.685  340.777  343.346  341.712  343.471  341.836  343.072  339.212  340.633  343.382  342.047  346.300  343.552  344.098  342.007  341.287  344.529  344.101  341.981  344.038  344.869  341.815  347.042  343.264  345.182  342.404  344.263  341.416  343.589  343.000  345.111  343.168  343.356  345.784  343.517  342.501  344.409  341.422  344.969  344.016  343.494  344.082  345.460  348.554  351.059  352.350  346.453  346.996  346.658  342.951  339.744  333.907  332.282  327.642  324.359  322.797  328.145  340.577 
DATE 2017:069:21:12:45 obsn   1 az 229 el 80 freq_MHz  1420.4000 Tsys 195.000 Tant 53.646 vlsr   20.88 glat -31.232 glon 133.843 source Trigl 
Fstart 1419.397 fstop 1421.403 spacing 0.009375 bw    2.400 fbw    2.000 MHz nfreq 256 nsam 5242880 npoint 214 integ    20 sigma    0.454 bsw 0
Spectrum     18 integration periods
 291.773  286.656  284.055  283.929  283.307  284.413  282.771  283.967  283.142  285.938  283.531  284.903  284.102  283.418  283.269  281.788  281.663  281.539  282.695  283.922  283.362  282.966  283.366  282.823  283.817  283.635  284.007  283.975  285.746  283.826  285.129  285.776  285.060  285.849  286.336  285.659  286.629  285.166  285.446  284.475  283.179  282.754  285.214  282.859  283.098  282.462  281.660  281.421  280.608  280.572  280.566  280.934  279.182  279.002  279.036  277.691  278.636  277.751  276.560  276.632  278.392  278.185  279.079  296.845  292.087  296.609  279.845  275.981  276.305  277.593  274.928  276.115  274.640  276.163  276.498  276.837  277.363  277.232  276.795  278.135  279.115  277.556  279.158  279.064  281.103  279.435  281.127  281.660  280.676  281.247  280.926  281.961  282.160  285.665  287.849  291.237  294.404  296.880  297.250  295.754  294.395  291.097  289.133  288.005  286.382  286.456  285.944  287.740  285.310  284.716  286.122  285.682  286.172  287.302  285.400  284.573  286.651  285.114  286.619  285.806  286.720  285.359  285.298  287.190  285.170  285.748  287.081  285.531  285.345  285.948  287.256  285.477  285.128  287.064  286.279  284.589  286.134  286.914  284.865  285.303  287.189  286.780  285.400  286.469  286.133  286.720  285.461  288.350  286.303  286.851  289.150  287.103  287.480  288.419  287.028  289.485  289.189  287.708  289.494  288.722  289.989  288.804  289.770  287.891  288.654  289.774  289.715  291.627  291.060  289.925  289.097  289.253  291.030  289.813  289.081  289.368  290.626  289.600  291.493  290.448  291.990  289.801  290.409  288.978  290.129  289.560  290.580  289.592  289.754  289.980  289.493  289.293  290.332  288.315  290.687  289.661  290.951  291.438  291.821  293.533  295.487  295.534  293.910  293.386  292.229  290.177  287.453  283.006  279.214  275.548  273.798  272.083  276.394  288.226 
